$DSC2
$Conventional
$Adiabatic Mode
$Scanrate Corrected-Programmed
$Baseline Subtraction Method: 0 File: NONE
$DP Corrected
$RTD Corrected
$MidGain FB,  0.75 
$ADCGainCode:  0 
$ 10 
$NOT
$ 10 
$ 0            20            25           False
$ 0 
$ 15           80            60            5             0             2             2             0 
$ 15           80            60            5             0             2             2             0 
$ 15           80            60            5             0             2             2             0 
$ 15           80            60            5             0             2             2             0 
$ 15           80            60            5             0             2             2             0 
$ 15           80            60            5             0             2             2             0 
$ 15           80            60            5             0             2             2             0 
$ 15           80            60            5             0             2             2             0 
$ 15           80            60            5             0             2             2             0 
$ 15           80            60            5             0             2             2             0 
# 0 
# 0.5197
# 0
# 11.63 
# 0.75 
# 10.743 
? 
% VPDSC02.06.462
% 0.51971 
% 11.63 
%-0.995356 , 100.17434 
% 3.676 
% 250 ,       -22.5 
% 1000.3 , 1000.3 
% 0.88219 ,-0.02026 
%-0.08266 , 0.02515 
% 1 , 0.055 
% 0.0522 
% 1 , 130 
% 0.080433 , 0.056504 
% 0 , 8 
% 0 , 18 
% 0.072589046661 ,-0.003235099108 , 8.240903228419E-06 , 2.357972384211E-07 ,-7.440723641986E-10 
% VPViewer2000 Ver: 1.4.14
@6
17.38763,-3.113294,2.00
17.42091,-3.112795,4.00
17.45691,-3.112050,6.00
17.49072,-3.111486,8.00
17.52343,-3.111528,10.00
17.55510,-3.111902,12.00
17.58638,-3.111631,14.00
17.62152,-3.111142,16.00
17.65431,-3.111229,18.00
17.68568,-3.110994,20.00
17.71832,-3.110606,22.00
17.75143,-3.110041,24.00
17.78384,-3.109665,26.00
17.81756,-3.109688,28.00
17.85315,-3.109049,30.00
17.88628,-3.108606,32.00
17.91880,-3.108374,34.00
17.95329,-3.108023,36.00
17.98561,-3.108284,38.00
18.01967,-3.108586,40.00
18.05457,-3.108350,42.00
18.08775,-3.108336,44.00
18.12268,-3.109042,46.00
18.15681,-3.108840,48.00
18.19176,-3.108625,50.00
18.22581,-3.108905,52.00
18.25640,-3.109344,54.00
18.29139,-3.109912,56.00
18.32165,-3.109606,58.00
18.35275,-3.109052,60.00
18.38660,-3.108492,62.00
18.42328,-3.108453,64.00
18.45645,-3.108563,66.00
18.48926,-3.108935,68.00
18.52155,-3.109029,70.00
18.55605,-3.108867,72.00
18.59017,-3.109332,74.00
18.61973,-3.109484,76.00
18.65423,-3.109237,78.00
18.68871,-3.108879,80.00
18.72231,-3.108643,82.00
18.75620,-3.108581,84.00
18.78653,-3.108064,86.00
18.81920,-3.107000,88.00
18.85101,-3.106334,90.00
18.88639,-3.105874,92.00
18.91948,-3.105666,94.00
18.95189,-3.105079,96.00
18.98636,-3.104663,98.00
19.01984,-3.104296,100.00
19.05139,-3.104224,102.00
19.08387,-3.104351,104.00
19.11792,-3.103973,106.00
19.15226,-3.103859,108.00
19.18511,-3.103797,110.00
19.21809,-3.104334,112.00
19.25358,-3.104723,114.00
19.28759,-3.104792,116.00
19.32229,-3.104912,118.00
19.35602,-3.104713,120.00
19.38845,-3.104802,122.00
19.42034,-3.104345,124.00
19.45212,-3.103735,126.00
19.48791,-3.103220,128.00
19.51962,-3.103133,130.00
19.55037,-3.102825,132.00
19.58356,-3.102926,134.00
19.61576,-3.102970,136.00
19.64950,-3.103553,138.00
19.68164,-3.103398,140.00
19.71446,-3.104056,142.00
19.74602,-3.104313,144.00
19.77868,-3.104141,146.00
19.81115,-3.103889,148.00
19.84467,-3.103873,150.00
19.87713,-3.103655,152.00
19.90990,-3.103089,154.00
19.94318,-3.103254,156.00
19.97747,-3.103431,158.00
20.01149,-3.103639,160.00
20.04731,-3.103665,162.00
20.08127,-3.104014,164.00
20.11172,-3.103946,166.00
20.14504,-3.104350,168.00
20.17895,-3.104155,170.00
20.21249,-3.103785,172.00
20.24395,-3.103995,174.00
20.27780,-3.102619,176.00
20.31058,-3.102322,178.00
20.34552,-3.101328,180.00
20.37962,-3.101121,182.00
20.41032,-3.100739,184.00
20.44243,-3.100636,186.00
20.47530,-3.102048,188.00
20.51094,-3.101151,190.00
20.54296,-3.102247,192.00
20.57378,-3.102411,194.00
20.60597,-3.102923,196.00
20.63967,-3.102867,198.00
20.67553,-3.102766,200.00
20.70921,-3.103218,202.00
20.74052,-3.102863,204.00
20.77283,-3.102963,206.00
20.80378,-3.102817,208.00
20.83677,-3.102691,210.00
20.87055,-3.102241,212.00
20.90388,-3.101960,214.00
20.93751,-3.101787,216.00
20.96795,-3.101738,218.00
21.00269,-3.100701,220.00
21.03862,-3.099962,222.00
21.06923,-3.099894,224.00
21.10262,-3.099969,226.00
21.13451,-3.099519,228.00
21.16743,-3.099083,230.00
21.19879,-3.098494,232.00
21.23460,-3.098492,234.00
21.26665,-3.098456,236.00
21.29841,-3.098203,238.00
21.33247,-3.098398,240.00
21.36452,-3.098783,242.00
21.39669,-3.098554,244.00
21.42945,-3.099371,246.00
21.46551,-3.099175,248.00
21.49820,-3.098764,250.00
21.53011,-3.098768,252.00
21.56487,-3.098871,254.00
21.59631,-3.099033,256.00
21.62813,-3.098764,258.00
21.65953,-3.098788,260.00
21.69303,-3.099345,262.00
21.72494,-3.099135,264.00
21.75628,-3.099223,266.00
21.79146,-3.099483,268.00
21.82225,-3.099332,270.00
21.85536,-3.099462,272.00
21.89040,-3.099747,274.00
21.92428,-3.100020,276.00
21.95551,-3.099386,278.00
21.98920,-3.099106,280.00
22.02130,-3.099037,282.00
22.04997,-3.098535,284.00
22.08338,-3.098180,286.00
22.11852,-3.098040,288.00
22.15301,-3.097751,290.00
22.18573,-3.097260,292.00
22.21422,-3.096633,294.00
22.24812,-3.096320,296.00
22.28138,-3.096721,298.00
22.31474,-3.096803,300.00
22.34944,-3.096811,302.00
22.38147,-3.097121,304.00
22.41154,-3.097655,306.00
22.44647,-3.097574,308.00
22.47757,-3.097984,310.00
22.50813,-3.098496,312.00
22.54373,-3.098840,314.00
22.57386,-3.098674,316.00
22.60749,-3.098701,318.00
22.64178,-3.098626,320.00
22.67614,-3.098997,322.00
22.70802,-3.098724,324.00
22.73653,-3.098535,326.00
22.76879,-3.098830,328.00
22.80084,-3.098836,330.00
22.83749,-3.098401,332.00
22.86964,-3.098222,334.00
22.90205,-3.098121,336.00
22.93639,-3.097466,338.00
22.96854,-3.097489,340.00
23.00238,-3.096698,342.00
23.03589,-3.096788,344.00
23.06838,-3.096765,346.00
23.10069,-3.096386,348.00
23.13272,-3.096122,350.00
23.16515,-3.095708,352.00
23.19690,-3.095245,354.00
23.23037,-3.095181,356.00
23.26244,-3.095846,358.00
23.29828,-3.095839,360.00
23.33282,-3.095682,362.00
23.36326,-3.095372,364.00
23.39860,-3.094649,366.00
23.43344,-3.094993,368.00
23.46500,-3.094982,370.00
23.49840,-3.094923,372.00
23.53335,-3.094839,374.00
23.56587,-3.094369,376.00
23.60050,-3.094752,378.00
23.63324,-3.094734,380.00
23.66567,-3.095038,382.00
23.69716,-3.094674,384.00
23.72900,-3.094939,386.00
23.76141,-3.095234,388.00
23.79602,-3.095924,390.00
23.83178,-3.096239,392.00
23.86411,-3.096305,394.00
23.89404,-3.096334,396.00
23.92682,-3.096864,398.00
23.95890,-3.096526,400.00
23.99324,-3.097337,402.00
24.02640,-3.097815,404.00
24.06018,-3.098129,406.00
24.09038,-3.098805,408.00
24.12500,-3.099399,410.00
24.15850,-3.099314,412.00
24.19032,-3.098950,414.00
24.22306,-3.098709,416.00
24.25765,-3.098789,418.00
24.29285,-3.098815,420.00
24.32555,-3.098130,422.00
24.35812,-3.098517,424.00
24.39026,-3.098549,426.00
24.42339,-3.098576,428.00
24.45658,-3.098832,430.00
24.48593,-3.099266,432.00
24.52017,-3.098989,434.00
24.55319,-3.098834,436.00
24.58590,-3.098766,438.00
24.61983,-3.099034,440.00
24.65155,-3.099123,442.00
24.68680,-3.098756,444.00
24.71926,-3.098635,446.00
24.75592,-3.098508,448.00
24.78969,-3.098548,450.00
24.81894,-3.098333,452.00
24.85185,-3.097882,454.00
24.88530,-3.098118,456.00
24.91993,-3.097578,458.00
24.95446,-3.097440,460.00
24.99070,-3.097755,462.00
25.02128,-3.098196,464.00
25.05167,-3.098776,466.00
25.08325,-3.099073,468.00
25.11737,-3.099507,470.00
25.14938,-3.099958,472.00
25.18266,-3.100311,474.00
25.21695,-3.100265,476.00
25.24893,-3.100691,478.00
25.28158,-3.100843,480.00
25.31278,-3.100503,482.00
25.34802,-3.100252,484.00
25.37991,-3.100016,486.00
25.41430,-3.100257,488.00
25.44669,-3.100579,490.00
25.48068,-3.100746,492.00
25.51126,-3.101252,494.00
25.54629,-3.101215,496.00
25.57901,-3.101701,498.00
25.61074,-3.102113,500.00
25.64419,-3.102915,502.00
25.67709,-3.103423,504.00
25.71092,-3.104425,506.00
25.74326,-3.104866,508.00
25.77810,-3.105489,510.00
25.81149,-3.106024,512.00
25.84495,-3.107124,514.00
25.88166,-3.107765,516.00
25.91227,-3.108492,518.00
25.94321,-3.109246,520.00
25.97792,-3.109943,522.00
26.01178,-3.110401,524.00
26.04546,-3.111467,526.00
26.07781,-3.112305,528.00
26.10652,-3.112707,530.00
26.13964,-3.112962,532.00
26.17458,-3.113862,534.00
26.21005,-3.114312,536.00
26.24474,-3.115136,538.00
26.27747,-3.116175,540.00
26.31289,-3.116307,542.00
26.34867,-3.117165,544.00
26.37861,-3.117777,546.00
26.41026,-3.118511,548.00
26.44228,-3.119433,550.00
26.47542,-3.120648,552.00
26.50921,-3.121687,554.00
26.54216,-3.123025,556.00
26.57301,-3.125026,558.00
26.60715,-3.126807,560.00
26.64010,-3.128077,562.00
26.67032,-3.130010,564.00
26.70406,-3.131746,566.00
26.73995,-3.133435,568.00
26.77308,-3.135478,570.00
26.80792,-3.137147,572.00
26.84080,-3.138807,574.00
26.87365,-3.141736,576.00
26.90855,-3.144634,578.00
26.94109,-3.147589,580.00
26.97386,-3.150936,582.00
27.00654,-3.154441,584.00
27.04004,-3.158081,586.00
27.07626,-3.162297,588.00
27.10919,-3.167118,590.00
27.14197,-3.172111,592.00
27.17779,-3.178568,594.00
27.21078,-3.184868,596.00
27.24285,-3.192343,598.00
27.27777,-3.201063,600.00
27.30929,-3.210195,602.00
27.34040,-3.220340,604.00
27.37646,-3.232475,606.00
27.40879,-3.245781,608.00
27.43951,-3.260775,610.00
27.47404,-3.278250,612.00
27.50956,-3.298872,614.00
27.54039,-3.322378,616.00
27.57166,-3.350551,618.00
27.60569,-3.384038,620.00
27.63758,-3.425147,622.00
27.67194,-3.475367,624.00
27.70608,-3.538241,626.00
27.73879,-3.617330,628.00
27.77066,-3.718406,630.00
27.80354,-3.851894,632.00
27.83655,-4.027433,634.00
27.86912,-4.258710,636.00
27.90216,-4.548323,638.00
27.93392,-4.875761,640.00
27.96626,-5.238403,642.00
27.99946,-5.657471,644.00
28.03365,-6.120723,646.00
28.06709,-6.639728,648.00
28.10206,-7.199359,650.00
28.13880,-7.689851,652.00
28.16989,-7.912190,654.00
28.20275,-7.744751,656.00
28.23723,-7.250606,658.00
28.27095,-6.634617,660.00
28.30442,-6.047869,662.00
28.33786,-5.536110,664.00
28.37016,-5.104117,666.00
28.40110,-4.744325,668.00
28.43353,-4.447308,670.00
28.46482,-4.202471,672.00
28.49950,-4.000379,674.00
28.53078,-3.834573,676.00
28.56220,-3.698215,678.00
28.59607,-3.586977,680.00
28.62907,-3.495475,682.00
28.66146,-3.419801,684.00
28.69449,-3.357786,686.00
28.72789,-3.307437,688.00
28.76132,-3.266479,690.00
28.79502,-3.232404,692.00
28.82749,-3.204535,694.00
28.85907,-3.181473,696.00
28.89204,-3.162933,698.00
28.92575,-3.147773,700.00
28.95868,-3.135203,702.00
28.99000,-3.125221,704.00
29.02499,-3.116257,706.00
29.05852,-3.109119,708.00
29.09105,-3.103701,710.00
29.12298,-3.098851,712.00
29.15685,-3.095497,714.00
29.18805,-3.093316,716.00
29.22201,-3.092511,718.00
29.25405,-3.092558,720.00
29.28784,-3.092506,722.00
29.31908,-3.093822,724.00
29.35441,-3.095159,726.00
29.38850,-3.095254,728.00
29.42094,-3.095401,730.00
29.45306,-3.094627,732.00
29.48558,-3.092728,734.00
29.51704,-3.090625,736.00
29.55374,-3.088657,738.00
29.58624,-3.086642,740.00
29.61841,-3.085137,742.00
29.65293,-3.083838,744.00
29.68720,-3.082911,746.00
29.71989,-3.081947,748.00
29.75392,-3.081101,750.00
29.78792,-3.080268,752.00
29.81873,-3.079863,754.00
29.85338,-3.079784,756.00
29.88681,-3.079532,758.00
29.92015,-3.079025,760.00
29.95352,-3.078972,762.00
29.97990,-3.078613,764.00
30.01218,-3.078125,766.00
30.04631,-3.077933,768.00
30.07898,-3.077435,770.00
30.10949,-3.077276,772.00
30.14621,-3.076948,774.00
30.17882,-3.076412,776.00
30.21211,-3.075841,778.00
30.24878,-3.075504,780.00
30.28213,-3.075203,782.00
30.31389,-3.075115,784.00
30.34792,-3.075329,786.00
30.38103,-3.075780,788.00
30.41567,-3.075962,790.00
30.44866,-3.075725,792.00
30.48007,-3.076285,794.00
30.51491,-3.076642,796.00
30.55073,-3.076855,798.00
30.58688,-3.076500,800.00
30.61874,-3.076577,802.00
30.65052,-3.076828,804.00
30.68324,-3.077009,806.00
30.71555,-3.076981,808.00
30.74765,-3.076897,810.00
30.78099,-3.076997,812.00
30.81461,-3.076974,814.00
30.84898,-3.076829,816.00
30.88089,-3.076913,818.00
30.91339,-3.077527,820.00
30.94528,-3.077602,822.00
30.97821,-3.076923,824.00
31.01335,-3.076858,826.00
31.04666,-3.076528,828.00
31.08205,-3.076277,830.00
31.11303,-3.076247,832.00
31.14401,-3.076496,834.00
31.17817,-3.075900,836.00
31.21004,-3.075335,838.00
31.24222,-3.075077,840.00
31.27711,-3.075389,842.00
31.30984,-3.075766,844.00
31.34581,-3.075317,846.00
31.37948,-3.075303,848.00
31.41169,-3.075082,850.00
31.44212,-3.074741,852.00
31.47687,-3.074714,854.00
31.51139,-3.074685,856.00
31.54254,-3.074889,858.00
31.57795,-3.074841,860.00
31.60958,-3.074865,862.00
31.64296,-3.075111,864.00
31.67390,-3.075246,866.00
31.70905,-3.075163,868.00
31.73952,-3.075255,870.00
31.77158,-3.075097,872.00
31.80477,-3.074736,874.00
31.83889,-3.074620,876.00
31.87282,-3.074573,878.00
31.90721,-3.074650,880.00
31.94106,-3.074096,882.00
31.97352,-3.073905,884.00
32.00548,-3.073935,886.00
32.03857,-3.074321,888.00
32.07128,-3.074047,890.00
32.10495,-3.073888,892.00
32.13901,-3.073507,894.00
32.17133,-3.073568,896.00
32.20449,-3.073802,898.00
32.23674,-3.073456,900.00
32.27129,-3.073741,902.00
32.30558,-3.073692,904.00
32.33791,-3.073458,906.00
32.37159,-3.073258,908.00
32.40568,-3.072973,910.00
32.43962,-3.072257,912.00
32.47148,-3.071991,914.00
32.50357,-3.071159,916.00
32.53620,-3.070095,918.00
32.56909,-3.069856,920.00
32.60062,-3.070154,922.00
32.63340,-3.070139,924.00
32.66629,-3.070617,926.00
32.69949,-3.070707,928.00
32.73100,-3.071191,930.00
32.76415,-3.071120,932.00
32.79635,-3.071266,934.00
32.82944,-3.071119,936.00
32.86210,-3.071111,938.00
32.89583,-3.071153,940.00
32.92876,-3.070910,942.00
32.96524,-3.071013,944.00
32.99657,-3.071077,946.00
33.03051,-3.071047,948.00
33.06618,-3.070880,950.00
33.09766,-3.071267,952.00
33.13124,-3.070960,954.00
33.16130,-3.070594,956.00
33.19607,-3.070248,958.00
33.23034,-3.070538,960.00
33.26254,-3.071112,962.00
33.29446,-3.070774,964.00
33.33094,-3.071166,966.00
33.36046,-3.071310,968.00
33.39430,-3.071238,970.00
33.42654,-3.071633,972.00
33.46042,-3.071710,974.00
33.49408,-3.071569,976.00
33.52704,-3.071793,978.00
33.55961,-3.071719,980.00
33.59391,-3.071329,982.00
33.62987,-3.070641,984.00
33.66216,-3.070739,986.00
33.69569,-3.070598,988.00
33.72996,-3.070924,990.00
33.76164,-3.070641,992.00
33.79619,-3.070305,994.00
33.82812,-3.070112,996.00
33.86062,-3.069661,998.00
33.89131,-3.069592,1000.00
33.92240,-3.069626,1002.00
33.95566,-3.069237,1004.00
33.98933,-3.069138,1006.00
34.02321,-3.069009,1008.00
34.05677,-3.069079,1010.00
34.08997,-3.069200,1012.00
34.12434,-3.068943,1014.00
34.15814,-3.069092,1016.00
34.19115,-3.069160,1018.00
34.22674,-3.069438,1020.00
34.25773,-3.069525,1022.00
34.29147,-3.069370,1024.00
34.32374,-3.069177,1026.00
34.35894,-3.069916,1028.00
34.39194,-3.070467,1030.00
34.42613,-3.070955,1032.00
34.46129,-3.071403,1034.00
34.49258,-3.071537,1036.00
34.52590,-3.071841,1038.00
34.55991,-3.072545,1040.00
34.59121,-3.072705,1042.00
34.62533,-3.072549,1044.00
34.65851,-3.072720,1046.00
34.69234,-3.072632,1048.00
34.72518,-3.072553,1050.00
34.75906,-3.072804,1052.00
34.79136,-3.073044,1054.00
34.82480,-3.072679,1056.00
34.85842,-3.072670,1058.00
34.89145,-3.072284,1060.00
34.92672,-3.072287,1062.00
34.95881,-3.072649,1064.00
34.99036,-3.073185,1066.00
35.02487,-3.072610,1068.00
35.05678,-3.072781,1070.00
35.09226,-3.072753,1072.00
35.12506,-3.072675,1074.00
35.15864,-3.073121,1076.00
35.18976,-3.072959,1078.00
35.22373,-3.072801,1080.00
35.25481,-3.072394,1082.00
35.28775,-3.072050,1084.00
35.32180,-3.071988,1086.00
35.35487,-3.071613,1088.00
35.38662,-3.071207,1090.00
35.42079,-3.071337,1092.00
35.45712,-3.071454,1094.00
35.49138,-3.071461,1096.00
35.52303,-3.071621,1098.00
35.55710,-3.071490,1100.00
35.59065,-3.071837,1102.00
35.62315,-3.072516,1104.00
35.65639,-3.072651,1106.00
35.69101,-3.072713,1108.00
35.72372,-3.072298,1110.00
35.75841,-3.072210,1112.00
35.79057,-3.071566,1114.00
35.82291,-3.071020,1116.00
35.85693,-3.071094,1118.00
35.89221,-3.070932,1120.00
35.92258,-3.070762,1122.00
35.95807,-3.070735,1124.00
35.99286,-3.070279,1126.00
36.02471,-3.070338,1128.00
36.05568,-3.070976,1130.00
36.08860,-3.070716,1132.00
36.12165,-3.070460,1134.00
36.15680,-3.070235,1136.00
36.19048,-3.070138,1138.00
36.22409,-3.070116,1140.00
36.25680,-3.070455,1142.00
36.28928,-3.070713,1144.00
36.32226,-3.070712,1146.00
36.35490,-3.071361,1148.00
36.38856,-3.071856,1150.00
36.42366,-3.072229,1152.00
36.45613,-3.072887,1154.00
36.48895,-3.073040,1156.00
36.52137,-3.072979,1158.00
36.55577,-3.073085,1160.00
36.58615,-3.073210,1162.00
36.61862,-3.072818,1164.00
36.65198,-3.073169,1166.00
36.68378,-3.073244,1168.00
36.71700,-3.073099,1170.00
36.75184,-3.073271,1172.00
36.78534,-3.073357,1174.00
36.81555,-3.073482,1176.00
36.84957,-3.072711,1178.00
36.88237,-3.072293,1180.00
36.91603,-3.072151,1182.00
36.95009,-3.071323,1184.00
36.98488,-3.071225,1186.00
37.01786,-3.070871,1188.00
37.05010,-3.070574,1190.00
37.08224,-3.070486,1192.00
37.11571,-3.070433,1194.00
37.14824,-3.070262,1196.00
37.18131,-3.069913,1198.00
37.21365,-3.070403,1200.00
37.24725,-3.070504,1202.00
37.28115,-3.069940,1204.00
37.31401,-3.069796,1206.00
37.34824,-3.069907,1208.00
37.38298,-3.069942,1210.00
37.41413,-3.069762,1212.00
37.44801,-3.070049,1214.00
37.48404,-3.070464,1216.00
37.51703,-3.070674,1218.00
37.54907,-3.070487,1220.00
37.58239,-3.070336,1222.00
37.61364,-3.070000,1224.00
37.64743,-3.070857,1226.00
37.68101,-3.070893,1228.00
37.71370,-3.070850,1230.00
37.74688,-3.070532,1232.00
37.77868,-3.070610,1234.00
37.80863,-3.070905,1236.00
37.84326,-3.071107,1238.00
37.87698,-3.071234,1240.00
37.91081,-3.070539,1242.00
37.94481,-3.070411,1244.00
37.97755,-3.069900,1246.00
38.01138,-3.070881,1248.00
38.04307,-3.071141,1250.00
38.07685,-3.071567,1252.00
38.11104,-3.072196,1254.00
38.14499,-3.071975,1256.00
38.17939,-3.071936,1258.00
38.21321,-3.072184,1260.00
38.24444,-3.072328,1262.00
38.27716,-3.072187,1264.00
38.31251,-3.071654,1266.00
38.34325,-3.072468,1268.00
38.37520,-3.072818,1270.00
38.41052,-3.072898,1272.00
38.44300,-3.073100,1274.00
38.47503,-3.072947,1276.00
38.50816,-3.072424,1278.00
38.54170,-3.072516,1280.00
38.57350,-3.072480,1282.00
38.60755,-3.072687,1284.00
38.63821,-3.072559,1286.00
38.67423,-3.072102,1288.00
38.70713,-3.072179,1290.00
38.74243,-3.071673,1292.00
38.77419,-3.071407,1294.00
38.80615,-3.072004,1296.00
38.83769,-3.071819,1298.00
38.87141,-3.072136,1300.00
38.90569,-3.072029,1302.00
38.93750,-3.071747,1304.00
38.96986,-3.072132,1306.00
39.00504,-3.071332,1308.00
39.03908,-3.071561,1310.00
39.06969,-3.071672,1312.00
39.10366,-3.072282,1314.00
39.13809,-3.072607,1316.00
39.17082,-3.072521,1318.00
39.20261,-3.072418,1320.00
39.23687,-3.072495,1322.00
39.27091,-3.071991,1324.00
39.30563,-3.071998,1326.00
39.33864,-3.072167,1328.00
39.37155,-3.072029,1330.00
39.40481,-3.071686,1332.00
39.43929,-3.071372,1334.00
39.47241,-3.071323,1336.00
39.50505,-3.071745,1338.00
39.53705,-3.072004,1340.00
39.56996,-3.071467,1342.00
39.60545,-3.072039,1344.00
