$DSC2
$Conventional
$Adiabatic Mode
$Scanrate Corrected-Programmed
$Baseline Subtraction Method: 0 File: NONE
$DP Corrected
$RTD Corrected
$MidGain FB,  0.75 
$ADCGainCode:  0 
$ 10 
$NOT
$ 10 
$ 0            20            25           False
$ 0 
$ 15           80            60            5             0             2             2             0 
$ 15           80            60            5             0             2             2             0 
$ 15           80            60            5             0             2             2             0 
$ 15           80            60            5             0             2             2             0 
$ 15           80            60            5             0             2             2             0 
$ 15           80            60            5             0             2             2             0 
$ 15           80            60            5             0             2             2             0 
$ 15           80            60            5             0             2             2             0 
$ 15           80            60            5             0             2             2             0 
$ 15           80            60            5             0             2             2             0 
# 0 
# 0.5197
# 0
# 11.63 
# 0.75 
# 10.743 
? 
% VPDSC02.06.462
% 0.51971 
% 11.63 
%-0.995356 , 100.17434 
% 3.676 
% 250 ,       -22.5 
% 1000.3 , 1000.3 
% 0.88219 ,-0.02026 
%-0.08266 , 0.02515 
% 1 , 0.055 
% 0.0522 
% 1 , 130 
% 0.080433 , 0.056504 
% 0 , 8 
% 0 , 18 
% 0.072589046661 ,-0.003235099108 , 8.240903228419E-06 , 2.357972384211E-07 ,-7.440723641986E-10 
% VPViewer2000 Ver: 1.4.14
@8
17.40467,-3.194956,2.00
17.43729,-3.195127,4.00
17.47195,-3.195383,6.00
17.50422,-3.194856,8.00
17.53491,-3.194413,10.00
17.56854,-3.194364,12.00
17.60087,-3.194140,14.00
17.63495,-3.194204,16.00
17.66855,-3.194426,18.00
17.70151,-3.194392,20.00
17.73585,-3.194380,22.00
17.76888,-3.194702,24.00
17.80314,-3.194773,26.00
17.83637,-3.195061,28.00
17.86809,-3.194714,30.00
17.90316,-3.193810,32.00
17.93582,-3.193496,34.00
17.96888,-3.193593,36.00
18.00251,-3.193446,38.00
18.03687,-3.193205,40.00
18.06959,-3.192696,42.00
18.10458,-3.193028,44.00
18.13792,-3.193307,46.00
18.17191,-3.193228,48.00
18.20483,-3.193219,50.00
18.24066,-3.192921,52.00
18.27150,-3.193028,54.00
18.30031,-3.193048,56.00
18.33178,-3.192044,58.00
18.36632,-3.191479,60.00
18.39879,-3.191142,62.00
18.42896,-3.190929,64.00
18.46375,-3.191367,66.00
18.49524,-3.191978,68.00
18.52798,-3.192305,70.00
18.56121,-3.192764,72.00
18.59167,-3.192953,74.00
18.62505,-3.192381,76.00
18.66037,-3.192165,78.00
18.69381,-3.191783,80.00
18.72750,-3.191595,82.00
18.76314,-3.191537,84.00
18.79685,-3.191160,86.00
18.82669,-3.190733,88.00
18.85724,-3.190547,90.00
18.88923,-3.190704,92.00
18.92375,-3.190809,94.00
18.95691,-3.190942,96.00
18.99111,-3.190585,98.00
19.02316,-3.190320,100.00
19.05501,-3.190170,102.00
19.08517,-3.189956,104.00
19.11922,-3.189283,106.00
19.15137,-3.189119,108.00
19.18458,-3.189165,110.00
19.21807,-3.189182,112.00
19.25117,-3.189622,114.00
19.28326,-3.189981,116.00
19.31885,-3.189864,118.00
19.35071,-3.189871,120.00
19.38446,-3.189475,122.00
19.41598,-3.189261,124.00
19.44853,-3.188763,126.00
19.48184,-3.188233,128.00
19.51576,-3.188243,130.00
19.54717,-3.188521,132.00
19.58096,-3.188208,134.00
19.61546,-3.188304,136.00
19.64888,-3.188746,138.00
19.68139,-3.189447,140.00
19.71147,-3.189266,142.00
19.74473,-3.189739,144.00
19.77837,-3.189375,146.00
19.81039,-3.188725,148.00
19.84282,-3.188423,150.00
19.87402,-3.187737,152.00
19.90552,-3.187068,154.00
19.93933,-3.186682,156.00
19.97259,-3.186948,158.00
20.00652,-3.187052,160.00
20.03801,-3.187933,162.00
20.07487,-3.188328,164.00
20.10840,-3.187785,166.00
20.14096,-3.187984,168.00
20.17436,-3.187838,170.00
20.20815,-3.188001,172.00
20.23915,-3.187003,174.00
20.27150,-3.186787,176.00
20.30546,-3.186353,178.00
20.33908,-3.186353,180.00
20.36999,-3.185904,182.00
20.40505,-3.186034,184.00
20.43813,-3.186243,186.00
20.47072,-3.186473,188.00
20.50304,-3.186066,190.00
20.53630,-3.185701,192.00
20.57138,-3.185725,194.00
20.60773,-3.185746,196.00
20.64123,-3.186121,198.00
20.67331,-3.186111,200.00
20.70668,-3.186498,202.00
20.73767,-3.186101,204.00
20.76926,-3.186323,206.00
20.80317,-3.186448,208.00
20.83733,-3.186350,210.00
20.86959,-3.185684,212.00
20.90159,-3.185852,214.00
20.93440,-3.185624,216.00
20.96463,-3.184994,218.00
21.00143,-3.184611,220.00
21.03548,-3.184472,222.00
21.06895,-3.184532,224.00
21.10386,-3.185393,226.00
21.13730,-3.185195,228.00
21.16974,-3.184984,230.00
21.20211,-3.184819,232.00
21.23465,-3.184473,234.00
21.26617,-3.184266,236.00
21.30031,-3.183737,238.00
21.33290,-3.183076,240.00
21.36638,-3.182501,242.00
21.39673,-3.182328,244.00
21.42759,-3.182905,246.00
21.45974,-3.182714,248.00
21.49351,-3.182890,250.00
21.52899,-3.181977,252.00
21.56070,-3.181393,254.00
21.59571,-3.181296,256.00
21.63026,-3.181586,258.00
21.66020,-3.181694,260.00
21.69226,-3.182007,262.00
21.72743,-3.182417,264.00
21.75972,-3.182625,266.00
21.79303,-3.182984,268.00
21.82627,-3.183932,270.00
21.86010,-3.184046,272.00
21.89396,-3.183721,274.00
21.92686,-3.183411,276.00
21.95747,-3.183245,278.00
21.99150,-3.182800,280.00
22.02620,-3.182267,282.00
22.05748,-3.182630,284.00
22.09240,-3.182277,286.00
22.12373,-3.182234,288.00
22.15658,-3.182600,290.00
22.19031,-3.182068,292.00
22.21851,-3.181933,294.00
22.24874,-3.181497,296.00
22.28395,-3.181365,298.00
22.31708,-3.180982,300.00
22.35102,-3.181251,302.00
22.38261,-3.181675,304.00
22.41433,-3.182396,306.00
22.44718,-3.182576,308.00
22.48050,-3.183133,310.00
22.51234,-3.183029,312.00
22.54755,-3.182679,314.00
22.57913,-3.182671,316.00
22.61235,-3.182507,318.00
22.64293,-3.182276,320.00
22.67483,-3.181717,322.00
22.70982,-3.181306,324.00
22.74167,-3.181580,326.00
22.77470,-3.181929,328.00
22.80785,-3.182169,330.00
22.84194,-3.182067,332.00
22.87564,-3.182357,334.00
22.90879,-3.182985,336.00
22.94145,-3.182469,338.00
22.97591,-3.181861,340.00
23.01034,-3.181231,342.00
23.04189,-3.180623,344.00
23.07396,-3.181235,346.00
23.10763,-3.181922,348.00
23.14107,-3.181714,350.00
23.17499,-3.181222,352.00
23.20823,-3.180902,354.00
23.24227,-3.180589,356.00
23.27462,-3.180636,358.00
23.30366,-3.180699,360.00
23.33885,-3.181511,362.00
23.37165,-3.181445,364.00
23.40279,-3.181354,366.00
23.43627,-3.181268,368.00
23.46879,-3.181122,370.00
23.50045,-3.180997,372.00
23.53500,-3.180903,374.00
23.56824,-3.180821,376.00
23.60028,-3.181175,378.00
23.63227,-3.181457,380.00
23.66366,-3.181628,382.00
23.69980,-3.182041,384.00
23.73265,-3.182469,386.00
23.76686,-3.182678,388.00
23.79920,-3.182599,390.00
23.83289,-3.181891,392.00
23.86341,-3.181823,394.00
23.89923,-3.181556,396.00
23.93007,-3.180777,398.00
23.96572,-3.180323,400.00
23.99656,-3.180491,402.00
24.03059,-3.180347,404.00
24.06151,-3.181055,406.00
24.09642,-3.181618,408.00
24.12956,-3.182161,410.00
24.16249,-3.182127,412.00
24.19661,-3.182248,414.00
24.22992,-3.182324,416.00
24.26298,-3.182185,418.00
24.29293,-3.181805,420.00
24.32614,-3.181318,422.00
24.35773,-3.181166,424.00
24.39265,-3.180855,426.00
24.42707,-3.181167,428.00
24.45948,-3.181581,430.00
24.49529,-3.182130,432.00
24.52767,-3.182740,434.00
24.56104,-3.182493,436.00
24.59226,-3.182820,438.00
24.62509,-3.182659,440.00
24.65876,-3.182242,442.00
24.68983,-3.181688,444.00
24.72148,-3.181419,446.00
24.75595,-3.181256,448.00
24.78752,-3.181712,450.00
24.81962,-3.182162,452.00
24.85397,-3.181897,454.00
24.88625,-3.181515,456.00
24.91801,-3.181804,458.00
24.95331,-3.181885,460.00
24.98467,-3.181786,462.00
25.01705,-3.181951,464.00
25.04976,-3.181985,466.00
25.08212,-3.181979,468.00
25.11723,-3.181960,470.00
25.15011,-3.182058,472.00
25.18527,-3.182152,474.00
25.21781,-3.182703,476.00
25.24917,-3.182783,478.00
25.28419,-3.182858,480.00
25.31716,-3.183420,482.00
25.34700,-3.184326,484.00
25.38059,-3.184130,486.00
25.41625,-3.184440,488.00
25.44846,-3.184474,490.00
25.48253,-3.184584,492.00
25.51622,-3.184994,494.00
25.54794,-3.185275,496.00
25.58066,-3.185855,498.00
25.61261,-3.186553,500.00
25.64553,-3.187225,502.00
25.67991,-3.188049,504.00
25.71336,-3.188019,506.00
25.74606,-3.188155,508.00
25.77939,-3.188608,510.00
25.80879,-3.188529,512.00
25.84407,-3.188877,514.00
25.87750,-3.189042,516.00
25.91172,-3.189108,518.00
25.94403,-3.189482,520.00
25.97798,-3.190282,522.00
26.01115,-3.191683,524.00
26.04414,-3.192504,526.00
26.07672,-3.193341,528.00
26.10718,-3.193596,530.00
26.14035,-3.193782,532.00
26.17401,-3.194309,534.00
26.20753,-3.194919,536.00
26.23887,-3.195072,538.00
26.27388,-3.196050,540.00
26.30693,-3.196877,542.00
26.34060,-3.197535,544.00
26.37304,-3.198810,546.00
26.40656,-3.200444,548.00
26.44315,-3.202102,550.00
26.47491,-3.203216,552.00
26.50681,-3.203966,554.00
26.53954,-3.205946,556.00
26.57260,-3.207420,558.00
26.60251,-3.208867,560.00
26.63730,-3.210555,562.00
26.66959,-3.212509,564.00
26.70327,-3.214248,566.00
26.73737,-3.215807,568.00
26.77291,-3.217382,570.00
26.80632,-3.219202,572.00
26.83674,-3.221024,574.00
26.86890,-3.222819,576.00
26.90213,-3.225391,578.00
26.93725,-3.228016,580.00
26.97002,-3.230967,582.00
27.00208,-3.234135,584.00
27.03563,-3.237938,586.00
27.06974,-3.242481,588.00
27.10012,-3.247342,590.00
27.13557,-3.252422,592.00
27.16797,-3.257705,594.00
27.20126,-3.263682,596.00
27.23357,-3.270059,598.00
27.26547,-3.277329,600.00
27.29769,-3.284823,602.00
27.33195,-3.294298,604.00
27.36484,-3.304340,606.00
27.39863,-3.315993,608.00
27.43098,-3.329535,610.00
27.46367,-3.345319,612.00
27.49481,-3.364378,614.00
27.53137,-3.386825,616.00
27.56390,-3.413483,618.00
27.59624,-3.445503,620.00
27.62982,-3.484464,622.00
27.66138,-3.532351,624.00
27.69751,-3.591790,626.00
27.72820,-3.666804,628.00
27.76307,-3.764706,630.00
27.79737,-3.892626,632.00
27.83136,-4.061947,634.00
27.86354,-4.280930,636.00
27.89573,-4.548101,638.00
27.92933,-4.843115,640.00
27.96032,-5.174605,642.00
27.99427,-5.547688,644.00
28.02755,-5.938562,646.00
28.06101,-6.351708,648.00
28.09285,-6.789949,650.00
28.12769,-7.182165,652.00
28.16118,-7.300896,654.00
28.19198,-7.057511,656.00
28.22593,-6.575303,658.00
28.25969,-6.042713,660.00
28.29218,-5.556713,662.00
28.32413,-5.139544,664.00
28.36011,-4.790482,666.00
28.39399,-4.500548,668.00
28.42611,-4.261316,670.00
28.45873,-4.064669,672.00
28.49105,-3.902289,674.00
28.52473,-3.768934,676.00
28.55768,-3.659812,678.00
28.59077,-3.570812,680.00
28.62528,-3.497252,682.00
28.65779,-3.437180,684.00
28.69079,-3.387537,686.00
28.72535,-3.346538,688.00
28.75915,-3.313357,690.00
28.78915,-3.285707,692.00
28.82314,-3.263556,694.00
28.85557,-3.245006,696.00
28.88796,-3.229122,698.00
28.92138,-3.216814,700.00
28.95519,-3.206367,702.00
28.98665,-3.197742,704.00
29.01975,-3.190871,706.00
29.05342,-3.186090,708.00
29.08838,-3.182342,710.00
29.12110,-3.179220,712.00
29.15373,-3.177041,714.00
29.18790,-3.176095,716.00
29.22207,-3.175875,718.00
29.25550,-3.176314,720.00
29.28993,-3.176955,722.00
29.32146,-3.178205,724.00
29.35543,-3.179564,726.00
29.38951,-3.179978,728.00
29.42399,-3.179821,730.00
29.45748,-3.179037,732.00
29.48896,-3.176865,734.00
29.52049,-3.174666,736.00
29.55275,-3.172948,738.00
29.58672,-3.171796,740.00
29.61894,-3.170880,742.00
29.65391,-3.169391,744.00
29.68634,-3.168314,746.00
29.71822,-3.167194,748.00
29.75228,-3.166490,750.00
29.78717,-3.165948,752.00
29.81901,-3.164616,754.00
29.85213,-3.164000,756.00
29.88343,-3.162984,758.00
29.91660,-3.162702,760.00
29.94784,-3.162508,762.00
29.97748,-3.162345,764.00
30.00751,-3.161909,766.00
30.04221,-3.161535,768.00
30.07535,-3.161372,770.00
30.10810,-3.161004,772.00
30.14010,-3.160736,774.00
30.17224,-3.160107,776.00
30.20492,-3.159423,778.00
30.23835,-3.158696,780.00
30.27151,-3.159099,782.00
30.30611,-3.159970,784.00
30.34163,-3.159985,786.00
30.37376,-3.160878,788.00
30.40827,-3.160782,790.00
30.43893,-3.160622,792.00
30.47038,-3.160515,794.00
30.50452,-3.160862,796.00
30.53517,-3.160991,798.00
30.56707,-3.160720,800.00
30.59845,-3.160637,802.00
30.63560,-3.160718,804.00
30.66833,-3.160095,806.00
30.69961,-3.159647,808.00
30.73505,-3.159175,810.00
30.77132,-3.158851,812.00
30.80508,-3.158594,814.00
30.83882,-3.158370,816.00
30.87470,-3.158442,818.00
30.90877,-3.158344,820.00
30.94229,-3.158939,822.00
30.97592,-3.159119,824.00
31.00990,-3.158656,826.00
31.04542,-3.159377,828.00
31.07678,-3.160189,830.00
31.10945,-3.160513,832.00
31.14179,-3.160649,834.00
31.17463,-3.160206,836.00
31.20746,-3.159649,838.00
31.24041,-3.159515,840.00
31.27293,-3.159458,842.00
31.30737,-3.159344,844.00
31.34146,-3.158681,846.00
31.37238,-3.158771,848.00
31.40593,-3.157817,850.00
31.43967,-3.157688,852.00
31.47174,-3.157687,854.00
31.50589,-3.157744,856.00
31.53788,-3.157470,858.00
31.56792,-3.157077,860.00
31.60309,-3.156870,862.00
31.63755,-3.157283,864.00
31.66781,-3.157248,866.00
31.69959,-3.157064,868.00
31.73584,-3.157412,870.00
31.76885,-3.157243,872.00
31.80266,-3.157586,874.00
31.83592,-3.157930,876.00
31.86902,-3.158232,878.00
31.90331,-3.158695,880.00
31.93690,-3.158392,882.00
31.97073,-3.158657,884.00
32.00504,-3.158951,886.00
32.03540,-3.158994,888.00
32.06918,-3.158812,890.00
32.10296,-3.158879,892.00
32.13497,-3.158481,894.00
32.16820,-3.157787,896.00
32.20227,-3.158055,898.00
32.23665,-3.158423,900.00
32.26891,-3.158869,902.00
32.30111,-3.159598,904.00
32.33272,-3.159501,906.00
32.36457,-3.159020,908.00
32.39974,-3.158852,910.00
32.43170,-3.158593,912.00
32.46414,-3.158698,914.00
32.49753,-3.157972,916.00
32.53356,-3.156958,918.00
32.56522,-3.156297,920.00
32.59872,-3.156138,922.00
32.63037,-3.155614,924.00
32.66112,-3.156053,926.00
32.69341,-3.156341,928.00
32.72946,-3.156418,930.00
32.76220,-3.156785,932.00
32.79575,-3.157347,934.00
32.82784,-3.157865,936.00
32.86158,-3.158291,938.00
32.89414,-3.158625,940.00
32.92790,-3.158738,942.00
32.96138,-3.159103,944.00
32.99280,-3.159039,946.00
33.02748,-3.159032,948.00
33.05915,-3.158914,950.00
33.09268,-3.158677,952.00
33.12762,-3.158281,954.00
33.15912,-3.157459,956.00
33.19110,-3.157159,958.00
33.22460,-3.156910,960.00
33.25774,-3.156489,962.00
33.29330,-3.156458,964.00
33.32467,-3.156551,966.00
33.35907,-3.156145,968.00
33.39245,-3.156171,970.00
33.42393,-3.157073,972.00
33.46009,-3.157477,974.00
33.49212,-3.158051,976.00
33.52321,-3.158126,978.00
33.55711,-3.158243,980.00
33.59115,-3.158372,982.00
33.62367,-3.158485,984.00
33.65662,-3.158124,986.00
33.69098,-3.158319,988.00
33.72678,-3.158130,990.00
33.75855,-3.157516,992.00
33.79189,-3.156600,994.00
33.82392,-3.156123,996.00
33.85486,-3.155878,998.00
33.88421,-3.155486,1000.00
33.92018,-3.155566,1002.00
33.95459,-3.155335,1004.00
33.98863,-3.155861,1006.00
34.01878,-3.155815,1008.00
34.05285,-3.155806,1010.00
34.08784,-3.155495,1012.00
34.12169,-3.155082,1014.00
34.15354,-3.154958,1016.00
34.18748,-3.155239,1018.00
34.21839,-3.155168,1020.00
34.25107,-3.155542,1022.00
34.28350,-3.155230,1024.00
34.31861,-3.155248,1026.00
34.34952,-3.156086,1028.00
34.38331,-3.156038,1030.00
34.41468,-3.156726,1032.00
34.44763,-3.157026,1034.00
34.48247,-3.157243,1036.00
34.51224,-3.157828,1038.00
34.54519,-3.157855,1040.00
34.57996,-3.158336,1042.00
34.61202,-3.158369,1044.00
34.64515,-3.158437,1046.00
34.67659,-3.158565,1048.00
34.71132,-3.158520,1050.00
34.74395,-3.157921,1052.00
34.77989,-3.157543,1054.00
34.81346,-3.157494,1056.00
34.84721,-3.157076,1058.00
34.87919,-3.156494,1060.00
34.91343,-3.155764,1062.00
34.94533,-3.155760,1064.00
34.97989,-3.156485,1066.00
35.01587,-3.156368,1068.00
35.04712,-3.156045,1070.00
35.07969,-3.155880,1072.00
35.11502,-3.155625,1074.00
35.15053,-3.155782,1076.00
35.18369,-3.156098,1078.00
35.22118,-3.155982,1080.00
35.25353,-3.156256,1082.00
35.28330,-3.155683,1084.00
35.31626,-3.156183,1086.00
35.35179,-3.156262,1088.00
35.38475,-3.156055,1090.00
35.41868,-3.156710,1092.00
35.45114,-3.157559,1094.00
35.48545,-3.156964,1096.00
35.51857,-3.156687,1098.00
35.55170,-3.157158,1100.00
35.58515,-3.157300,1102.00
35.61691,-3.157794,1104.00
35.65252,-3.157536,1106.00
35.68391,-3.157365,1108.00
35.72043,-3.157653,1110.00
35.75146,-3.157517,1112.00
35.78347,-3.156905,1114.00
35.81772,-3.157197,1116.00
35.85238,-3.156397,1118.00
35.88299,-3.156480,1120.00
35.91771,-3.156269,1122.00
35.94934,-3.155833,1124.00
35.98655,-3.156226,1126.00
36.01753,-3.156931,1128.00
36.05247,-3.157466,1130.00
36.08511,-3.157588,1132.00
36.11637,-3.157329,1134.00
36.14984,-3.156966,1136.00
36.18288,-3.156175,1138.00
36.21468,-3.156235,1140.00
36.24753,-3.156447,1142.00
36.27988,-3.157026,1144.00
36.31364,-3.157390,1146.00
36.34450,-3.157610,1148.00
36.37773,-3.157970,1150.00
36.41058,-3.158223,1152.00
36.44140,-3.157886,1154.00
36.47724,-3.157538,1156.00
36.51489,-3.157216,1158.00
36.54857,-3.157096,1160.00
36.58057,-3.156278,1162.00
36.61555,-3.155906,1164.00
36.64707,-3.156216,1166.00
36.68142,-3.156165,1168.00
36.71436,-3.156753,1170.00
36.74688,-3.157000,1172.00
36.77733,-3.156937,1174.00
36.81287,-3.156700,1176.00
36.84491,-3.156920,1178.00
36.87763,-3.157175,1180.00
36.91003,-3.156856,1182.00
36.94305,-3.156255,1184.00
36.97693,-3.156197,1186.00
37.00866,-3.155706,1188.00
37.04218,-3.156243,1190.00
37.07837,-3.156803,1192.00
37.10762,-3.156855,1194.00
37.14053,-3.157001,1196.00
37.17500,-3.157064,1198.00
37.20852,-3.157506,1200.00
37.24034,-3.157227,1202.00
37.27284,-3.156829,1204.00
37.30796,-3.156715,1206.00
37.34172,-3.156649,1208.00
37.37333,-3.156781,1210.00
37.40680,-3.156888,1212.00
37.43991,-3.156955,1214.00
37.47244,-3.157307,1216.00
37.50525,-3.157862,1218.00
37.53656,-3.157942,1220.00
37.56940,-3.158764,1222.00
37.59948,-3.159170,1224.00
37.63513,-3.158923,1226.00
37.67136,-3.159590,1228.00
37.70387,-3.159772,1230.00
37.73532,-3.160219,1232.00
37.76399,-3.159665,1234.00
37.79662,-3.159603,1236.00
37.83030,-3.159747,1238.00
37.86327,-3.159878,1240.00
37.89635,-3.159505,1242.00
37.93061,-3.158868,1244.00
37.96551,-3.158497,1246.00
37.99816,-3.158096,1248.00
38.03048,-3.157577,1250.00
38.06684,-3.157297,1252.00
38.09921,-3.157469,1254.00
38.13519,-3.157664,1256.00
38.16663,-3.157343,1258.00
38.20147,-3.156770,1260.00
38.23578,-3.157066,1262.00
38.27065,-3.156703,1264.00
38.30461,-3.156747,1266.00
38.33706,-3.157622,1268.00
38.36888,-3.158755,1270.00
38.40271,-3.159379,1272.00
38.43676,-3.159936,1274.00
38.47041,-3.159130,1276.00
38.50328,-3.159266,1278.00
38.53679,-3.160339,1280.00
38.57238,-3.160926,1282.00
38.60409,-3.160299,1284.00
38.63631,-3.161241,1286.00
38.66911,-3.161545,1288.00
38.70249,-3.160856,1290.00
38.73820,-3.160947,1292.00
38.77063,-3.160603,1294.00
38.80326,-3.160588,1296.00
38.83985,-3.159951,1298.00
38.87117,-3.159898,1300.00
38.90606,-3.159585,1302.00
38.93997,-3.159187,1304.00
38.97249,-3.159056,1306.00
39.00674,-3.158565,1308.00
39.03837,-3.158381,1310.00
39.07415,-3.158807,1312.00
39.10724,-3.159349,1314.00
39.14033,-3.159844,1316.00
39.17294,-3.159616,1318.00
39.20927,-3.160225,1320.00
39.24158,-3.160313,1322.00
39.27545,-3.160607,1324.00
39.30773,-3.160988,1326.00
39.33903,-3.161424,1328.00
39.37090,-3.161267,1330.00
39.40422,-3.160992,1332.00
39.43928,-3.160438,1334.00
39.47044,-3.159829,1336.00
39.50274,-3.159674,1338.00
39.53552,-3.159797,1340.00
39.56996,-3.159502,1342.00
39.60189,-3.159313,1344.00
