$DSC2
$Conventional
$Adiabatic Mode
$Scanrate Corrected-Programmed
$Baseline Subtraction Method: 0 File: NONE
$DP Corrected
$RTD Corrected
$MidGain FB,  0.75 
$ADCGainCode:  0 
$ 10 
$NOT
$ 10 
$ 0            20            25           False
$ 0 
$ 15           80            60            5             0             2             2             0 
$ 15           80            60            5             0             2             2             0 
$ 15           80            60            5             0             2             2             0 
$ 15           80            60            5             0             2             2             0 
$ 15           80            60            5             0             2             2             0 
$ 15           80            60            5             0             2             2             0 
$ 15           80            60            5             0             2             2             0 
$ 15           80            60            5             0             2             2             0 
$ 15           80            60            5             0             2             2             0 
$ 15           80            60            5             0             2             2             0 
# 0 
# 0.5197
# 0
# 11.63 
# 0.75 
# 10.743 
? 
% VPDSC02.06.462
% 0.51971 
% 11.63 
%-0.995356 , 100.17434 
% 3.676 
% 250 ,       -22.5 
% 1000.3 , 1000.3 
% 0.88219 ,-0.02026 
%-0.08266 , 0.02515 
% 1 , 0.055 
% 0.0522 
% 1 , 130 
% 0.080433 , 0.056504 
% 0 , 8 
% 0 , 18 
% 0.072589046661 ,-0.003235099108 , 8.240903228419E-06 , 2.357972384211E-07 ,-7.440723641986E-10 
% VPViewer2000 Ver: 1.4.14
@4
17.40546,-3.021378,2.00
17.43868,-3.021446,4.00
17.47231,-3.021257,6.00
17.50510,-3.020995,8.00
17.53661,-3.020588,10.00
17.57060,-3.020224,12.00
17.60452,-3.020326,14.00
17.63655,-3.020090,16.00
17.66912,-3.019890,18.00
17.70392,-3.019495,20.00
17.73758,-3.019330,22.00
17.76839,-3.019397,24.00
17.80062,-3.019621,26.00
17.83403,-3.019352,28.00
17.86629,-3.019604,30.00
17.89883,-3.019500,32.00
17.93244,-3.019222,34.00
17.96194,-3.019546,36.00
17.99557,-3.019505,38.00
18.03026,-3.019496,40.00
18.06103,-3.019839,42.00
18.09430,-3.020331,44.00
18.13009,-3.020181,46.00
18.16319,-3.020379,48.00
18.19639,-3.020319,50.00
18.22791,-3.020485,52.00
18.26135,-3.020324,54.00
18.29308,-3.020272,56.00
18.32690,-3.020407,58.00
18.35987,-3.020506,60.00
18.39173,-3.020298,62.00
18.42652,-3.020972,64.00
18.45883,-3.020621,66.00
18.49012,-3.020558,68.00
18.52347,-3.020842,70.00
18.55778,-3.020343,72.00
18.58902,-3.020850,74.00
18.62149,-3.020845,76.00
18.65512,-3.020859,78.00
18.68738,-3.020681,80.00
18.72158,-3.020543,82.00
18.75432,-3.020427,84.00
18.78616,-3.020372,86.00
18.81726,-3.020377,88.00
18.85031,-3.019419,90.00
18.88470,-3.019098,92.00
18.91694,-3.018906,94.00
18.94794,-3.018571,96.00
18.98135,-3.018592,98.00
19.01445,-3.018323,100.00
19.04900,-3.018001,102.00
19.08017,-3.017632,104.00
19.11507,-3.017115,106.00
19.14906,-3.016854,108.00
19.17792,-3.016809,110.00
19.21245,-3.017377,112.00
19.24803,-3.016775,114.00
19.27972,-3.016535,116.00
19.31108,-3.016516,118.00
19.34486,-3.016244,120.00
19.37594,-3.015927,122.00
19.41024,-3.015998,124.00
19.44534,-3.015665,126.00
19.47954,-3.014964,128.00
19.50987,-3.015012,130.00
19.54232,-3.014430,132.00
19.57500,-3.013714,134.00
19.60857,-3.013431,136.00
19.64318,-3.013243,138.00
19.67521,-3.013236,140.00
19.71050,-3.013168,142.00
19.74468,-3.012707,144.00
19.77619,-3.012321,146.00
19.80915,-3.012427,148.00
19.84331,-3.012061,150.00
19.87523,-3.011900,152.00
19.90791,-3.011502,154.00
19.94020,-3.011174,156.00
19.97304,-3.010798,158.00
20.00638,-3.010814,160.00
20.03935,-3.010910,162.00
20.07311,-3.010772,164.00
20.10678,-3.010709,166.00
20.14217,-3.010768,168.00
20.17639,-3.010758,170.00
20.20813,-3.010666,172.00
20.24068,-3.011375,174.00
20.27512,-3.011609,176.00
20.30868,-3.011942,178.00
20.34075,-3.012752,180.00
20.37489,-3.012831,182.00
20.40546,-3.012687,184.00
20.43890,-3.012790,186.00
20.47101,-3.012836,188.00
20.50880,-3.012052,190.00
20.54353,-3.011657,192.00
20.57503,-3.011140,194.00
20.60843,-3.011311,196.00
20.64280,-3.010880,198.00
20.67725,-3.010765,200.00
20.70892,-3.010854,202.00
20.74344,-3.010958,204.00
20.77560,-3.011911,206.00
20.80822,-3.012330,208.00
20.84311,-3.012406,210.00
20.87840,-3.012480,212.00
20.91112,-3.012680,214.00
20.94496,-3.012785,216.00
20.97915,-3.012708,218.00
21.01108,-3.012838,220.00
21.04243,-3.012506,222.00
21.07614,-3.011801,224.00
21.11064,-3.011653,226.00
21.14413,-3.011615,228.00
21.17848,-3.010931,230.00
21.21133,-3.010435,232.00
21.24429,-3.010687,234.00
21.27774,-3.010382,236.00
21.31429,-3.010159,238.00
21.34909,-3.010477,240.00
21.38151,-3.010452,242.00
21.41498,-3.010361,244.00
21.44829,-3.010475,246.00
21.48078,-3.010402,248.00
21.51376,-3.010480,250.00
21.54468,-3.009616,252.00
21.58138,-3.009494,254.00
21.61636,-3.009908,256.00
21.65040,-3.009523,258.00
21.68161,-3.009582,260.00
21.71532,-3.009333,262.00
21.74689,-3.008819,264.00
21.77826,-3.008613,266.00
21.81159,-3.008223,268.00
21.84525,-3.008021,270.00
21.87938,-3.007718,272.00
21.91431,-3.008301,274.00
21.94822,-3.008392,276.00
21.98500,-3.009045,278.00
22.02117,-3.009254,280.00
22.05179,-3.008754,282.00
22.08452,-3.009013,284.00
22.11717,-3.009369,286.00
22.14566,-3.009622,288.00
22.18181,-3.009618,290.00
22.21221,-3.009828,292.00
22.24453,-3.010080,294.00
22.27830,-3.010221,296.00
22.31241,-3.009792,298.00
22.34738,-3.009886,300.00
22.37946,-3.010686,302.00
22.41453,-3.011052,304.00
22.44602,-3.011148,306.00
22.47878,-3.010879,308.00
22.51144,-3.010471,310.00
22.54660,-3.010381,312.00
22.57996,-3.009937,314.00
22.61162,-3.009637,316.00
22.64640,-3.009409,318.00
22.67920,-3.009648,320.00
22.70879,-3.009268,322.00
22.74155,-3.008805,324.00
22.77581,-3.008254,326.00
22.81019,-3.008476,328.00
22.84147,-3.008097,330.00
22.87443,-3.007761,332.00
22.90850,-3.008044,334.00
22.94029,-3.007919,336.00
22.97283,-3.007810,338.00
23.00637,-3.007498,340.00
23.03935,-3.007101,342.00
23.07390,-3.006550,344.00
23.10598,-3.007221,346.00
23.13958,-3.007418,348.00
23.17341,-3.007117,350.00
23.20571,-3.007214,352.00
23.23860,-3.007031,354.00
23.27189,-3.006736,356.00
23.30627,-3.006869,358.00
23.33952,-3.006687,360.00
23.37273,-3.007325,362.00
23.40366,-3.007708,364.00
23.43744,-3.007519,366.00
23.46863,-3.007034,368.00
23.50216,-3.007199,370.00
23.53533,-3.007584,372.00
23.56838,-3.007660,374.00
23.60300,-3.007463,376.00
23.63528,-3.006697,378.00
23.66609,-3.006011,380.00
23.69870,-3.005888,382.00
23.73053,-3.006012,384.00
23.76602,-3.006350,386.00
23.79840,-3.006901,388.00
23.83023,-3.007338,390.00
23.86062,-3.007441,392.00
23.89851,-3.007684,394.00
23.93200,-3.007808,396.00
23.96552,-3.006824,398.00
23.99967,-3.006185,400.00
24.03196,-3.005494,402.00
24.06480,-3.004981,404.00
24.09896,-3.005241,406.00
24.13191,-3.005703,408.00
24.16488,-3.005645,410.00
24.19785,-3.005626,412.00
24.22951,-3.006108,414.00
24.26189,-3.005994,416.00
24.29514,-3.006299,418.00
24.32872,-3.006135,420.00
24.36366,-3.006182,422.00
24.39429,-3.006048,424.00
24.42603,-3.005658,426.00
24.45751,-3.005648,428.00
24.49160,-3.005513,430.00
24.52558,-3.005442,432.00
24.55743,-3.005487,434.00
24.58895,-3.005792,436.00
24.62143,-3.006188,438.00
24.65405,-3.006346,440.00
24.68550,-3.006112,442.00
24.72049,-3.006103,444.00
24.75326,-3.006119,446.00
24.78637,-3.006336,448.00
24.82109,-3.006521,450.00
24.85382,-3.006503,452.00
24.88900,-3.006342,454.00
24.92034,-3.006532,456.00
24.95570,-3.007075,458.00
24.99094,-3.007148,460.00
25.02168,-3.006758,462.00
25.05710,-3.007049,464.00
25.08836,-3.006875,466.00
25.12111,-3.007473,468.00
25.15593,-3.007670,470.00
25.19063,-3.007685,472.00
25.22034,-3.008227,474.00
25.25522,-3.008161,476.00
25.28930,-3.008015,478.00
25.32189,-3.008529,480.00
25.35280,-3.008576,482.00
25.38730,-3.008592,484.00
25.41762,-3.008800,486.00
25.45366,-3.009062,488.00
25.48355,-3.009501,490.00
25.51470,-3.010194,492.00
25.54855,-3.009956,494.00
25.58186,-3.010434,496.00
25.61543,-3.010727,498.00
25.64856,-3.011142,500.00
25.68347,-3.011754,502.00
25.71306,-3.011891,504.00
25.74744,-3.012414,506.00
25.78121,-3.012785,508.00
25.81169,-3.013224,510.00
25.84306,-3.013997,512.00
25.87731,-3.015036,514.00
25.90960,-3.015967,516.00
25.94358,-3.016584,518.00
25.97721,-3.017506,520.00
26.00824,-3.018248,522.00
26.04246,-3.018823,524.00
26.07386,-3.019621,526.00
26.10529,-3.020083,528.00
26.13616,-3.020797,530.00
26.17027,-3.021717,532.00
26.20270,-3.022407,534.00
26.23401,-3.023737,536.00
26.26615,-3.024435,538.00
26.29862,-3.025151,540.00
26.33422,-3.026350,542.00
26.36465,-3.027458,544.00
26.39801,-3.028334,546.00
26.43324,-3.029853,548.00
26.46674,-3.031411,550.00
26.50055,-3.033114,552.00
26.53254,-3.034393,554.00
26.56620,-3.036593,556.00
26.59798,-3.038209,558.00
26.63124,-3.040241,560.00
26.66298,-3.042077,562.00
26.69611,-3.043914,564.00
26.73222,-3.046402,566.00
26.76687,-3.049098,568.00
26.79638,-3.051294,570.00
26.82973,-3.054287,572.00
26.86483,-3.056985,574.00
26.89676,-3.060676,576.00
26.93033,-3.064828,578.00
26.96406,-3.068523,580.00
26.99630,-3.072425,582.00
27.02833,-3.077267,584.00
27.06400,-3.081822,586.00
27.09681,-3.087151,588.00
27.13003,-3.093295,590.00
27.16393,-3.100039,592.00
27.19787,-3.107018,594.00
27.23132,-3.114786,596.00
27.26410,-3.123502,598.00
27.29916,-3.133374,600.00
27.32949,-3.143812,602.00
27.36062,-3.156759,604.00
27.39584,-3.170823,606.00
27.42962,-3.186890,608.00
27.46316,-3.205686,610.00
27.49562,-3.227087,612.00
27.52739,-3.252015,614.00
27.55905,-3.281963,616.00
27.59176,-3.317176,618.00
27.62564,-3.359539,620.00
27.65884,-3.411487,622.00
27.69350,-3.475899,624.00
27.72659,-3.555590,626.00
27.76036,-3.656528,628.00
27.79421,-3.787221,630.00
27.82542,-3.960353,632.00
27.85922,-4.190084,634.00
27.89362,-4.493611,636.00
27.92525,-4.866538,638.00
27.95779,-5.275466,640.00
27.99418,-5.733404,642.00
28.02869,-6.261533,644.00
28.06127,-6.867671,646.00
28.09237,-7.568060,648.00
28.12526,-8.278146,650.00
28.16072,-8.741520,652.00
28.19312,-8.729472,654.00
28.22416,-8.272945,656.00
28.25790,-7.567135,658.00
28.29224,-6.838524,660.00
28.32462,-6.185727,662.00
28.35626,-5.627785,664.00
28.38835,-5.160475,666.00
28.42253,-4.773582,668.00
28.45707,-4.453954,670.00
28.48961,-4.189970,672.00
28.52398,-3.973332,674.00
28.55639,-3.795171,676.00
28.58948,-3.649578,678.00
28.62323,-3.530309,680.00
28.65871,-3.431249,682.00
28.68951,-3.350949,684.00
28.72102,-3.284861,686.00
28.75636,-3.231094,688.00
28.79008,-3.187225,690.00
28.82268,-3.151422,692.00
28.85406,-3.122217,694.00
28.88799,-3.097546,696.00
28.92146,-3.077905,698.00
28.95456,-3.062226,700.00
28.98759,-3.049049,702.00
29.02125,-3.038249,704.00
29.05399,-3.029045,706.00
29.08870,-3.021955,708.00
29.11898,-3.016466,710.00
29.15243,-3.011971,712.00
29.18598,-3.008690,714.00
29.21903,-3.006851,716.00
29.25259,-3.006207,718.00
29.28448,-3.006600,720.00
29.31734,-3.006814,722.00
29.35021,-3.007213,724.00
29.38482,-3.007527,726.00
29.41891,-3.007274,728.00
29.44867,-3.005680,730.00
29.48223,-3.003174,732.00
29.51727,-3.000499,734.00
29.54798,-2.998645,736.00
29.58268,-2.996125,738.00
29.61644,-2.993704,740.00
29.65025,-2.992224,742.00
29.68267,-2.991016,744.00
29.71886,-2.990130,746.00
29.75160,-2.989572,748.00
29.78599,-2.988940,750.00
29.81903,-2.988565,752.00
29.85333,-2.988590,754.00
29.88540,-2.988338,756.00
29.91721,-2.988519,758.00
29.94945,-2.988307,760.00
29.97779,-2.988278,762.00
30.00982,-2.987839,764.00
30.04144,-2.987792,766.00
30.07777,-2.987842,768.00
30.11285,-2.987793,770.00
30.14452,-2.987812,772.00
30.17639,-2.987339,774.00
30.20767,-2.987088,776.00
30.24111,-2.986886,778.00
30.27587,-2.987040,780.00
30.30744,-2.986748,782.00
30.33850,-2.986203,784.00
30.37101,-2.985711,786.00
30.40545,-2.985088,788.00
30.44046,-2.984525,790.00
30.47365,-2.984122,792.00
30.50393,-2.984218,794.00
30.53824,-2.983799,796.00
30.57085,-2.983617,798.00
30.60425,-2.984080,800.00
30.63831,-2.983354,802.00
30.67160,-2.983077,804.00
30.70546,-2.983216,806.00
30.73686,-2.983341,808.00
30.77105,-2.982920,810.00
30.80427,-2.982778,812.00
30.83796,-2.983168,814.00
30.87145,-2.983748,816.00
30.90286,-2.983985,818.00
30.93688,-2.984109,820.00
30.97067,-2.983949,822.00
31.00113,-2.984066,824.00
31.03638,-2.984022,826.00
31.06797,-2.984852,828.00
31.10198,-2.985253,830.00
31.13628,-2.985355,832.00
31.16992,-2.985631,834.00
31.20028,-2.985735,836.00
31.23488,-2.985991,838.00
31.27164,-2.985583,840.00
31.30222,-2.985103,842.00
31.33586,-2.985216,844.00
31.36772,-2.984668,846.00
31.39916,-2.983854,848.00
31.43197,-2.983378,850.00
31.46713,-2.982854,852.00
31.50253,-2.982006,854.00
31.53316,-2.981541,856.00
31.56587,-2.981393,858.00
31.59940,-2.980940,860.00
31.63421,-2.980887,862.00
31.66707,-2.980645,864.00
31.70217,-2.980917,866.00
31.73406,-2.981262,868.00
31.76645,-2.981088,870.00
31.79854,-2.981614,872.00
31.82929,-2.981616,874.00
31.86136,-2.982416,876.00
31.89833,-2.982813,878.00
31.93313,-2.982063,880.00
31.96281,-2.981760,882.00
31.99682,-2.981901,884.00
32.03276,-2.982065,886.00
32.06599,-2.982286,888.00
32.09909,-2.982047,890.00
32.13264,-2.982017,892.00
32.16406,-2.981751,894.00
32.19493,-2.982004,896.00
32.22805,-2.982486,898.00
32.26534,-2.983007,900.00
32.29765,-2.982839,902.00
32.33310,-2.982501,904.00
32.36521,-2.981941,906.00
32.39880,-2.981777,908.00
32.42948,-2.981474,910.00
32.46545,-2.982043,912.00
32.49864,-2.981971,914.00
32.52832,-2.981591,916.00
32.56285,-2.981535,918.00
32.59688,-2.982202,920.00
32.62774,-2.982022,922.00
32.65976,-2.982212,924.00
32.69537,-2.982709,926.00
32.72658,-2.982557,928.00
32.75910,-2.982087,930.00
32.79115,-2.980889,932.00
32.82370,-2.980110,934.00
32.85837,-2.979994,936.00
32.89176,-2.980288,938.00
32.92496,-2.979313,940.00
32.95528,-2.979174,942.00
32.98815,-2.979239,944.00
33.02105,-2.979412,946.00
33.05408,-2.979521,948.00
33.08947,-2.979803,950.00
33.12222,-2.979698,952.00
33.15493,-2.979429,954.00
33.18738,-2.979934,956.00
33.22152,-2.980226,958.00
33.25531,-2.980296,960.00
33.28542,-2.980460,962.00
33.31955,-2.980517,964.00
33.35007,-2.980942,966.00
33.38158,-2.981057,968.00
33.41437,-2.981267,970.00
33.44771,-2.981397,972.00
33.48265,-2.982236,974.00
33.51725,-2.982690,976.00
33.55059,-2.982977,978.00
33.58455,-2.982656,980.00
33.61836,-2.982494,982.00
33.64854,-2.982111,984.00
33.68189,-2.982143,986.00
33.71340,-2.982459,988.00
33.74644,-2.982042,990.00
33.77920,-2.981592,992.00
33.81121,-2.981278,994.00
33.84601,-2.980869,996.00
33.87317,-2.980446,998.00
33.90847,-2.979671,1000.00
33.94310,-2.979920,1002.00
33.97376,-2.979859,1004.00
34.00753,-2.979596,1006.00
34.04045,-2.980239,1008.00
34.07468,-2.980238,1010.00
34.10704,-2.980267,1012.00
34.13968,-2.980408,1014.00
34.17370,-2.980167,1016.00
34.20599,-2.980410,1018.00
34.23788,-2.980711,1020.00
34.27338,-2.980645,1022.00
34.30631,-2.980877,1024.00
34.33821,-2.981248,1026.00
34.37095,-2.981123,1028.00
34.40312,-2.980894,1030.00
34.43596,-2.981057,1032.00
34.47146,-2.981115,1034.00
34.50373,-2.981216,1036.00
34.53590,-2.981197,1038.00
34.56911,-2.981630,1040.00
34.60170,-2.980926,1042.00
34.63437,-2.981121,1044.00
34.66719,-2.980757,1046.00
34.70123,-2.980393,1048.00
34.73385,-2.979786,1050.00
34.76838,-2.979464,1052.00
34.80171,-2.979476,1054.00
34.83224,-2.979077,1056.00
34.86379,-2.978329,1058.00
34.89715,-2.977510,1060.00
34.93027,-2.977866,1062.00
34.96406,-2.978037,1064.00
34.99705,-2.977933,1066.00
35.03013,-2.977875,1068.00
35.06085,-2.977626,1070.00
35.09446,-2.977279,1072.00
35.12596,-2.977098,1074.00
35.16038,-2.977212,1076.00
35.19496,-2.977558,1078.00
35.22955,-2.977382,1080.00
35.26301,-2.977905,1082.00
35.29440,-2.977670,1084.00
35.32827,-2.977850,1086.00
35.36090,-2.977636,1088.00
35.39477,-2.978674,1090.00
35.42708,-2.978371,1092.00
35.45980,-2.978082,1094.00
35.49463,-2.978018,1096.00
35.52706,-2.978110,1098.00
35.55807,-2.977539,1100.00
35.59203,-2.976977,1102.00
35.62675,-2.976990,1104.00
35.65881,-2.977070,1106.00
35.69300,-2.977363,1108.00
35.72933,-2.977408,1110.00
35.76298,-2.977831,1112.00
35.79608,-2.978218,1114.00
35.82811,-2.978666,1116.00
35.86178,-2.979137,1118.00
35.89535,-2.979415,1120.00
35.93315,-2.979327,1122.00
35.96442,-2.979959,1124.00
35.99650,-2.979605,1126.00
36.02933,-2.979110,1128.00
36.06438,-2.978920,1130.00
36.09750,-2.978973,1132.00
36.13239,-2.979157,1134.00
36.16471,-2.978663,1136.00
36.19735,-2.978527,1138.00
36.23033,-2.978028,1140.00
36.26194,-2.977964,1142.00
36.29451,-2.977822,1144.00
36.32630,-2.978038,1146.00
36.36010,-2.978193,1148.00
36.39096,-2.978150,1150.00
36.42328,-2.977607,1152.00
36.45458,-2.977856,1154.00
36.48944,-2.977796,1156.00
36.52300,-2.977521,1158.00
36.55930,-2.977221,1160.00
36.58804,-2.976797,1162.00
36.62330,-2.977023,1164.00
36.65564,-2.976806,1166.00
36.69154,-2.976886,1168.00
36.72364,-2.976560,1170.00
36.75708,-2.975912,1172.00
36.78823,-2.975905,1174.00
36.82232,-2.975605,1176.00
36.85566,-2.976000,1178.00
36.88983,-2.976148,1180.00
36.92389,-2.976589,1182.00
36.95479,-2.976859,1184.00
36.98695,-2.977383,1186.00
37.02338,-2.977830,1188.00
37.05401,-2.977819,1190.00
37.08809,-2.977842,1192.00
37.11840,-2.977880,1194.00
37.15381,-2.977981,1196.00
37.18762,-2.977487,1198.00
37.21962,-2.977055,1200.00
37.25201,-2.976636,1202.00
37.28794,-2.976457,1204.00
37.32070,-2.976750,1206.00
37.35367,-2.976776,1208.00
37.38760,-2.976176,1210.00
37.42025,-2.976207,1212.00
37.45210,-2.976373,1214.00
37.48582,-2.976647,1216.00
37.51777,-2.976529,1218.00
37.55202,-2.976425,1220.00
37.58529,-2.976528,1222.00
37.61852,-2.976858,1224.00
37.65222,-2.976957,1226.00
37.68425,-2.976880,1228.00
37.71726,-2.977176,1230.00
37.74719,-2.977576,1232.00
37.77677,-2.978127,1234.00
37.81058,-2.977398,1236.00
37.84457,-2.977718,1238.00
37.87626,-2.977908,1240.00
37.90807,-2.978041,1242.00
37.94011,-2.977905,1244.00
37.97390,-2.977989,1246.00
38.00602,-2.977998,1248.00
38.03869,-2.977931,1250.00
38.07195,-2.978195,1252.00
38.10749,-2.978187,1254.00
38.14014,-2.978270,1256.00
38.17143,-2.977759,1258.00
38.20765,-2.977499,1260.00
38.23922,-2.977432,1262.00
38.27256,-2.978149,1264.00
38.30622,-2.978279,1266.00
38.33955,-2.978753,1268.00
38.37437,-2.978404,1270.00
38.40801,-2.977958,1272.00
38.43981,-2.977516,1274.00
38.47343,-2.977445,1276.00
38.50610,-2.976837,1278.00
38.54024,-2.976849,1280.00
38.57194,-2.976946,1282.00
38.60522,-2.977627,1284.00
38.64094,-2.977659,1286.00
38.67410,-2.977892,1288.00
38.70806,-2.977679,1290.00
38.74125,-2.977874,1292.00
38.77432,-2.978129,1294.00
38.80590,-2.978713,1296.00
38.84054,-2.978917,1298.00
38.87469,-2.978750,1300.00
38.90659,-2.978196,1302.00
38.93811,-2.977591,1304.00
38.97237,-2.977195,1306.00
39.00487,-2.976604,1308.00
39.03795,-2.976391,1310.00
39.07160,-2.976638,1312.00
39.10380,-2.976791,1314.00
39.13895,-2.977002,1316.00
39.17180,-2.977344,1318.00
39.20599,-2.977492,1320.00
39.23801,-2.977836,1322.00
39.27193,-2.978010,1324.00
39.30745,-2.978093,1326.00
39.34062,-2.978423,1328.00
39.37408,-2.978374,1330.00
39.40740,-2.978650,1332.00
39.43911,-2.978800,1334.00
39.47365,-2.979016,1336.00
39.50885,-2.979503,1338.00
39.54029,-2.979809,1340.00
39.57288,-2.980008,1342.00
39.60251,-2.979860,1344.00
