$DSC2
$Conventional
$Adiabatic Mode
$Scanrate Corrected-Programmed
$Baseline Subtraction Method: 0 File: NONE
$DP Corrected
$RTD Corrected
$MidGain FB,  0.75 
$ADCGainCode:  0 
$ 10 
$NOT
$ 10 
$ 0            20            25           False
$ 0 
$ 15           80            60            5             0             2             2             0 
$ 15           80            60            5             0             2             2             0 
$ 15           80            60            5             0             2             2             0 
$ 15           80            60            5             0             2             2             0 
$ 15           80            60            5             0             2             2             0 
$ 15           80            60            5             0             2             2             0 
$ 15           80            60            5             0             2             2             0 
$ 15           80            60            5             0             2             2             0 
$ 15           80            60            5             0             2             2             0 
$ 15           80            60            5             0             2             2             0 
# 0 
# 0.5197
# 0
# 11.63 
# 0.75 
# 10.743 
? 
% VPDSC02.06.462
% 0.51971 
% 11.63 
%-0.995356 , 100.17434 
% 3.676 
% 250 ,       -22.5 
% 1000.3 , 1000.3 
% 0.88219 ,-0.02026 
%-0.08266 , 0.02515 
% 1 , 0.055 
% 0.0522 
% 1 , 130 
% 0.080433 , 0.056504 
% 0 , 8 
% 0 , 18 
% 0.072589046661 ,-0.003235099108 , 8.240903228419E-06 , 2.357972384211E-07 ,-7.440723641986E-10 
% VPViewer2000 Ver: 1.4.14
@10
17.40349,-3.220851,2.00
17.44039,-3.221037,4.00
17.47186,-3.221069,6.00
17.50439,-3.220470,8.00
17.53627,-3.220615,10.00
17.56817,-3.220529,12.00
17.60145,-3.220270,14.00
17.63274,-3.220022,16.00
17.66571,-3.220107,18.00
17.69497,-3.220203,20.00
17.72906,-3.220305,22.00
17.76170,-3.219846,24.00
17.79530,-3.219373,26.00
17.82759,-3.219639,28.00
17.85830,-3.219672,30.00
17.89067,-3.219855,32.00
17.92296,-3.219699,34.00
17.95837,-3.219925,36.00
17.99123,-3.219393,38.00
18.02332,-3.218897,40.00
18.05757,-3.218356,42.00
18.08854,-3.218402,44.00
18.12254,-3.218597,46.00
18.15375,-3.218198,48.00
18.18449,-3.217792,50.00
18.21949,-3.218111,52.00
18.25409,-3.218611,54.00
18.28237,-3.219079,56.00
18.31280,-3.219027,58.00
18.34247,-3.218778,60.00
18.37227,-3.218024,62.00
18.40686,-3.217473,64.00
18.44088,-3.217775,66.00
18.47437,-3.218302,68.00
18.50890,-3.218460,70.00
18.54387,-3.217965,72.00
18.57567,-3.217570,74.00
18.60735,-3.217411,76.00
18.64192,-3.217479,78.00
18.67355,-3.217192,80.00
18.70427,-3.217687,82.00
18.73869,-3.218049,84.00
18.77292,-3.217752,86.00
18.80337,-3.216697,88.00
18.83549,-3.216037,90.00
18.86835,-3.216177,92.00
18.90176,-3.215851,94.00
18.93610,-3.215719,96.00
18.96879,-3.215914,98.00
19.00153,-3.215733,100.00
19.03574,-3.216026,102.00
19.06905,-3.215161,104.00
19.10244,-3.214557,106.00
19.13332,-3.214761,108.00
19.16756,-3.215084,110.00
19.20021,-3.215112,112.00
19.23381,-3.215663,114.00
19.26772,-3.215597,116.00
19.29963,-3.215587,118.00
19.33200,-3.214797,120.00
19.36540,-3.214612,122.00
19.39912,-3.214752,124.00
19.43279,-3.214589,126.00
19.46501,-3.214827,128.00
19.49613,-3.214945,130.00
19.52678,-3.214954,132.00
19.56118,-3.214468,134.00
19.59254,-3.213723,136.00
19.62326,-3.214007,138.00
19.65809,-3.213885,140.00
19.68983,-3.214818,142.00
19.72252,-3.214778,144.00
19.75744,-3.214536,146.00
19.78777,-3.214062,148.00
19.82149,-3.214281,150.00
19.85456,-3.213757,152.00
19.89017,-3.213021,154.00
19.92354,-3.213059,156.00
19.95502,-3.212516,158.00
19.98479,-3.212923,160.00
20.01634,-3.213671,162.00
20.04990,-3.214011,164.00
20.08184,-3.213578,166.00
20.11582,-3.213273,168.00
20.14833,-3.212854,170.00
20.18162,-3.212364,172.00
20.21548,-3.212297,174.00
20.25014,-3.212276,176.00
20.28334,-3.212442,178.00
20.31707,-3.212772,180.00
20.34871,-3.213367,182.00
20.38208,-3.212793,184.00
20.41542,-3.212503,186.00
20.44929,-3.212040,188.00
20.48183,-3.212293,190.00
20.51392,-3.212802,192.00
20.55270,-3.212923,194.00
20.58584,-3.212471,196.00
20.62055,-3.212667,198.00
20.65111,-3.212181,200.00
20.68525,-3.212172,202.00
20.71598,-3.211641,204.00
20.74823,-3.211047,206.00
20.77983,-3.211042,208.00
20.81392,-3.211272,210.00
20.84688,-3.211333,212.00
20.88047,-3.211492,214.00
20.91133,-3.212122,216.00
20.94361,-3.211916,218.00
20.97420,-3.212054,220.00
21.00665,-3.211739,222.00
21.03967,-3.211088,224.00
21.07207,-3.210638,226.00
21.10409,-3.210421,228.00
21.13982,-3.210433,230.00
21.17198,-3.210455,232.00
21.20291,-3.210333,234.00
21.23691,-3.210359,236.00
21.26915,-3.209752,238.00
21.30276,-3.209294,240.00
21.33667,-3.209141,242.00
21.36773,-3.209190,244.00
21.40056,-3.209687,246.00
21.43415,-3.210085,248.00
21.46531,-3.209697,250.00
21.50093,-3.209865,252.00
21.53329,-3.210292,254.00
21.56708,-3.210151,256.00
21.59758,-3.209911,258.00
21.62946,-3.210237,260.00
21.66351,-3.210333,262.00
21.69695,-3.209970,264.00
21.72785,-3.209788,266.00
21.76135,-3.208996,268.00
21.79421,-3.208681,270.00
21.82825,-3.208921,272.00
21.86000,-3.208472,274.00
21.89403,-3.208811,276.00
21.92434,-3.209596,278.00
21.95705,-3.209535,280.00
21.99266,-3.209221,282.00
22.02441,-3.208666,284.00
22.05900,-3.208386,286.00
22.09217,-3.208247,288.00
22.12539,-3.208271,290.00
22.15515,-3.209074,292.00
22.18888,-3.209199,294.00
22.21838,-3.209316,296.00
22.24975,-3.209271,298.00
22.28580,-3.209271,300.00
22.31857,-3.209299,302.00
22.35161,-3.208925,304.00
22.38539,-3.208732,306.00
22.42056,-3.209328,308.00
22.44911,-3.209698,310.00
22.48354,-3.209602,312.00
22.51478,-3.209374,314.00
22.54776,-3.208893,316.00
22.58139,-3.208676,318.00
22.61514,-3.208803,320.00
22.64953,-3.208859,322.00
22.68078,-3.209169,324.00
22.71324,-3.209195,326.00
22.74821,-3.209161,328.00
22.77709,-3.208734,330.00
22.81358,-3.208094,332.00
22.84587,-3.208213,334.00
22.88060,-3.208230,336.00
22.91430,-3.208722,338.00
22.94564,-3.208684,340.00
22.98010,-3.208498,342.00
23.01167,-3.207934,344.00
23.04578,-3.208170,346.00
23.07849,-3.208297,348.00
23.11243,-3.208098,350.00
23.14664,-3.207821,352.00
23.17884,-3.207974,354.00
23.21188,-3.207874,356.00
23.24650,-3.208459,358.00
23.27797,-3.209009,360.00
23.31164,-3.208686,362.00
23.34584,-3.208013,364.00
23.37812,-3.208088,366.00
23.41235,-3.208242,368.00
23.44356,-3.208215,370.00
23.47746,-3.208407,372.00
23.51130,-3.208524,374.00
23.54362,-3.208393,376.00
23.57591,-3.208572,378.00
23.60889,-3.207963,380.00
23.64115,-3.208102,382.00
23.67348,-3.208063,384.00
23.70415,-3.208292,386.00
23.73686,-3.208270,388.00
23.77002,-3.208301,390.00
23.80277,-3.208096,392.00
23.83593,-3.207769,394.00
23.87159,-3.207689,396.00
23.90573,-3.207466,398.00
23.93648,-3.208317,400.00
23.96903,-3.208792,402.00
24.00350,-3.208829,404.00
24.03840,-3.208627,406.00
24.07270,-3.208600,408.00
24.10259,-3.208317,410.00
24.13733,-3.208769,412.00
24.17124,-3.208340,414.00
24.20300,-3.208295,416.00
24.23605,-3.208578,418.00
24.26925,-3.209006,420.00
24.30320,-3.209378,422.00
24.33510,-3.209176,424.00
24.36956,-3.208920,426.00
24.40187,-3.209024,428.00
24.43466,-3.209089,430.00
24.46905,-3.209288,432.00
24.50338,-3.209626,434.00
24.53417,-3.209812,436.00
24.56886,-3.209523,438.00
24.60036,-3.209301,440.00
24.63514,-3.209497,442.00
24.66914,-3.208929,444.00
24.70070,-3.208719,446.00
24.73389,-3.208496,448.00
24.76589,-3.208328,450.00
24.80050,-3.209103,452.00
24.83436,-3.209732,454.00
24.86722,-3.209665,456.00
24.90164,-3.208890,458.00
24.93419,-3.209475,460.00
24.96691,-3.210154,462.00
25.00083,-3.210430,464.00
25.03419,-3.210816,466.00
25.06623,-3.210813,468.00
25.09991,-3.210243,470.00
25.13438,-3.210533,472.00
25.16517,-3.210840,474.00
25.19819,-3.210899,476.00
25.23231,-3.210870,478.00
25.26277,-3.211454,480.00
25.29742,-3.211392,482.00
25.33114,-3.211902,484.00
25.36493,-3.212164,486.00
25.39783,-3.212487,488.00
25.43080,-3.213076,490.00
25.46323,-3.213708,492.00
25.49700,-3.213266,494.00
25.52863,-3.213018,496.00
25.56174,-3.212502,498.00
25.59366,-3.212465,500.00
25.62758,-3.212690,502.00
25.65967,-3.213935,504.00
25.69254,-3.213861,506.00
25.72616,-3.214522,508.00
25.75756,-3.215023,510.00
25.79095,-3.214514,512.00
25.82751,-3.215376,514.00
25.86024,-3.216078,516.00
25.89184,-3.217024,518.00
25.92874,-3.217510,520.00
25.96160,-3.218065,522.00
25.99405,-3.218876,524.00
26.02624,-3.218980,526.00
26.06012,-3.219907,528.00
26.08900,-3.220398,530.00
26.12103,-3.220696,532.00
26.15724,-3.221439,534.00
26.18864,-3.222259,536.00
26.22122,-3.223033,538.00
26.25770,-3.224569,540.00
26.28991,-3.225483,542.00
26.32336,-3.225953,544.00
26.35897,-3.226610,546.00
26.38960,-3.227334,548.00
26.42093,-3.228142,550.00
26.45618,-3.228973,552.00
26.48851,-3.230385,554.00
26.52366,-3.231489,556.00
26.55509,-3.233057,558.00
26.58840,-3.234607,560.00
26.61845,-3.236167,562.00
26.65024,-3.237732,564.00
26.68586,-3.238830,566.00
26.71737,-3.239959,568.00
26.74941,-3.242059,570.00
26.78340,-3.243704,572.00
26.81687,-3.245271,574.00
26.84955,-3.247771,576.00
26.88544,-3.250616,578.00
26.91849,-3.253289,580.00
26.95055,-3.255725,582.00
26.98489,-3.258158,584.00
27.01849,-3.260731,586.00
27.05215,-3.263829,588.00
27.08305,-3.268180,590.00
27.11674,-3.272370,592.00
27.15327,-3.277204,594.00
27.18795,-3.282556,596.00
27.21873,-3.288331,598.00
27.25035,-3.294753,600.00
27.28398,-3.301807,602.00
27.31683,-3.309460,604.00
27.34980,-3.318518,606.00
27.38170,-3.329575,608.00
27.41493,-3.342044,610.00
27.44779,-3.355929,612.00
27.47884,-3.372142,614.00
27.51364,-3.390487,616.00
27.54614,-3.412112,618.00
27.57721,-3.438999,620.00
27.61055,-3.471705,622.00
27.64511,-3.512165,624.00
27.67809,-3.562749,626.00
27.71075,-3.626064,628.00
27.74328,-3.706924,630.00
27.77478,-3.812608,632.00
27.81163,-3.952842,634.00
27.84399,-4.137724,636.00
27.87888,-4.375822,638.00
27.91037,-4.655742,640.00
27.94342,-4.959941,642.00
27.97969,-5.301218,644.00
28.01153,-5.656564,646.00
28.04353,-5.996829,648.00
28.07894,-6.333116,650.00
28.11100,-6.686577,652.00
28.14318,-6.909321,654.00
28.17533,-6.793030,656.00
28.21041,-6.361129,658.00
28.24495,-5.836702,660.00
28.27519,-5.366214,662.00
28.30841,-4.973814,664.00
28.34033,-4.652081,666.00
28.37557,-4.388875,668.00
28.40958,-4.172187,670.00
28.44056,-3.995105,672.00
28.47329,-3.849352,674.00
28.50819,-3.729984,676.00
28.54108,-3.632534,678.00
28.57300,-3.553148,680.00
28.60648,-3.487437,682.00
28.63769,-3.433695,684.00
28.67381,-3.389865,686.00
28.70903,-3.353157,688.00
28.73980,-3.323213,690.00
28.77324,-3.298975,692.00
28.80633,-3.278741,694.00
28.83753,-3.262680,696.00
28.87266,-3.249716,698.00
28.90548,-3.238936,700.00
28.93861,-3.230398,702.00
28.97056,-3.223228,704.00
29.00367,-3.216682,706.00
29.03769,-3.211346,708.00
29.07087,-3.206899,710.00
29.10409,-3.204020,712.00
29.13856,-3.202058,714.00
29.16957,-3.200761,716.00
29.20264,-3.200347,718.00
29.23545,-3.201122,720.00
29.26710,-3.202642,722.00
29.30220,-3.203980,724.00
29.33483,-3.205391,726.00
29.36785,-3.207544,728.00
29.40084,-3.208640,730.00
29.43466,-3.208108,732.00
29.46736,-3.206198,734.00
29.49765,-3.204003,736.00
29.53173,-3.202184,738.00
29.56661,-3.200308,740.00
29.59944,-3.198145,742.00
29.63214,-3.195912,744.00
29.66574,-3.194439,746.00
29.69981,-3.193313,748.00
29.73381,-3.192705,750.00
29.76727,-3.192377,752.00
29.80050,-3.192707,754.00
29.83356,-3.191989,756.00
29.86413,-3.191457,758.00
29.89803,-3.191110,760.00
29.92979,-3.190956,762.00
29.96247,-3.190574,764.00
29.99192,-3.189891,766.00
30.02248,-3.189195,768.00
30.05809,-3.188685,770.00
30.09136,-3.188600,772.00
30.12298,-3.188883,774.00
30.15495,-3.188884,776.00
30.18760,-3.188645,778.00
30.22229,-3.188672,780.00
30.25633,-3.188804,782.00
30.28557,-3.189023,784.00
30.31894,-3.188535,786.00
30.35355,-3.187796,788.00
30.38697,-3.187899,790.00
30.42088,-3.187745,792.00
30.45329,-3.187454,794.00
30.48456,-3.188224,796.00
30.51698,-3.188315,798.00
30.55314,-3.188608,800.00
30.58634,-3.188069,802.00
30.61789,-3.187071,804.00
30.64986,-3.186593,806.00
30.68252,-3.186958,808.00
30.71625,-3.187838,810.00
30.75241,-3.187995,812.00
30.78332,-3.188096,814.00
30.81619,-3.187771,816.00
30.85036,-3.187717,818.00
30.88548,-3.187759,820.00
30.91610,-3.187473,822.00
30.95246,-3.187448,824.00
30.98431,-3.187198,826.00
31.01569,-3.187209,828.00
31.04808,-3.187745,830.00
31.08203,-3.188502,832.00
31.11466,-3.188440,834.00
31.14827,-3.187870,836.00
31.18260,-3.187605,838.00
31.22022,-3.187063,840.00
31.25601,-3.186936,842.00
31.28827,-3.186897,844.00
31.32219,-3.186812,846.00
31.35617,-3.187167,848.00
31.38718,-3.187011,850.00
31.41879,-3.187725,852.00
31.45019,-3.187681,854.00
31.48465,-3.187568,856.00
31.51686,-3.187177,858.00
31.54766,-3.186623,860.00
31.58248,-3.186010,862.00
31.61649,-3.185838,864.00
31.65025,-3.185883,866.00
31.68370,-3.186093,868.00
31.71515,-3.187097,870.00
31.74754,-3.187587,872.00
31.77910,-3.187478,874.00
31.81441,-3.187426,876.00
31.84588,-3.187290,878.00
31.88074,-3.186868,880.00
31.91464,-3.186419,882.00
31.94855,-3.186498,884.00
31.98283,-3.186833,886.00
32.01276,-3.187409,888.00
32.04668,-3.187458,890.00
32.08158,-3.187916,892.00
32.11566,-3.187715,894.00
32.14590,-3.187181,896.00
32.17834,-3.186449,898.00
32.21066,-3.186325,900.00
32.24402,-3.186691,902.00
32.27756,-3.186685,904.00
32.31043,-3.186845,906.00
32.34524,-3.187303,908.00
32.37997,-3.186655,910.00
32.41123,-3.186425,912.00
32.44227,-3.185968,914.00
32.47412,-3.185649,916.00
32.50919,-3.185489,918.00
32.54223,-3.185262,920.00
32.57442,-3.185680,922.00
32.60729,-3.186084,924.00
32.63885,-3.186779,926.00
32.67406,-3.187041,928.00
32.70688,-3.187319,930.00
32.73852,-3.186801,932.00
32.77492,-3.186401,934.00
32.80795,-3.186280,936.00
32.84141,-3.186189,938.00
32.87309,-3.186883,940.00
32.90892,-3.186961,942.00
32.94447,-3.186897,944.00
32.97599,-3.187239,946.00
33.00679,-3.187709,948.00
33.04095,-3.187711,950.00
33.07398,-3.187142,952.00
33.10840,-3.186849,954.00
33.14256,-3.186411,956.00
33.17627,-3.185578,958.00
33.20582,-3.185437,960.00
33.24141,-3.185714,962.00
33.27386,-3.185971,964.00
33.30681,-3.186465,966.00
33.34129,-3.186648,968.00
33.37366,-3.186587,970.00
33.40618,-3.186342,972.00
33.44117,-3.186513,974.00
33.47316,-3.186620,976.00
33.50623,-3.186490,978.00
33.54051,-3.186185,980.00
33.57246,-3.185982,982.00
33.60617,-3.185975,984.00
33.64213,-3.185700,986.00
33.67265,-3.186050,988.00
33.70668,-3.186620,990.00
33.73877,-3.187079,992.00
33.77118,-3.186567,994.00
33.80533,-3.186437,996.00
33.83860,-3.186120,998.00
33.86981,-3.185469,1000.00
33.90165,-3.185325,1002.00
33.93166,-3.185717,1004.00
33.96658,-3.186205,1006.00
33.99832,-3.186200,1008.00
34.03210,-3.186166,1010.00
34.06478,-3.186546,1012.00
34.09871,-3.186160,1014.00
34.13323,-3.186004,1016.00
34.16721,-3.185537,1018.00
34.20323,-3.185446,1020.00
34.23673,-3.184994,1022.00
34.26726,-3.185480,1024.00
34.30185,-3.185683,1026.00
34.33553,-3.185916,1028.00
34.36646,-3.186365,1030.00
34.39939,-3.186253,1032.00
34.43161,-3.185926,1034.00
34.46387,-3.185614,1036.00
34.49831,-3.185051,1038.00
34.53071,-3.185243,1040.00
34.56223,-3.185610,1042.00
34.59554,-3.186023,1044.00
34.62772,-3.186436,1046.00
34.65975,-3.186799,1048.00
34.69306,-3.186419,1050.00
34.72775,-3.186219,1052.00
34.75905,-3.185842,1054.00
34.79258,-3.185898,1056.00
34.82654,-3.185531,1058.00
34.86214,-3.185347,1060.00
34.89573,-3.185819,1062.00
34.92885,-3.186766,1064.00
34.95929,-3.187114,1066.00
34.99302,-3.187217,1068.00
35.02828,-3.187707,1070.00
35.06039,-3.188261,1072.00
35.09470,-3.187917,1074.00
35.12764,-3.187773,1076.00
35.16046,-3.187506,1078.00
35.19308,-3.187379,1080.00
35.22540,-3.186827,1082.00
35.25795,-3.186668,1084.00
35.29090,-3.186846,1086.00
35.32655,-3.186650,1088.00
35.35735,-3.187019,1090.00
35.39048,-3.187500,1092.00
35.42276,-3.187842,1094.00
35.45681,-3.187548,1096.00
35.49145,-3.187047,1098.00
35.52246,-3.186689,1100.00
35.55622,-3.186031,1102.00
35.58991,-3.186043,1104.00
35.62475,-3.186213,1106.00
35.65813,-3.186969,1108.00
35.69302,-3.187044,1110.00
35.72618,-3.187117,1112.00
35.75755,-3.187314,1114.00
35.79137,-3.187444,1116.00
35.82334,-3.187309,1118.00
35.85948,-3.187359,1120.00
35.89326,-3.187162,1122.00
35.92489,-3.187441,1124.00
35.95805,-3.187655,1126.00
35.99203,-3.187547,1128.00
36.02266,-3.187385,1130.00
36.05779,-3.187130,1132.00
36.08917,-3.187271,1134.00
36.12297,-3.187243,1136.00
36.15393,-3.187310,1138.00
36.19003,-3.187435,1140.00
36.22279,-3.187593,1142.00
36.25627,-3.188346,1144.00
36.29030,-3.188469,1146.00
36.32276,-3.188238,1148.00
36.35495,-3.188089,1150.00
36.38881,-3.187240,1152.00
36.42233,-3.188221,1154.00
36.45887,-3.187590,1156.00
36.49081,-3.187358,1158.00
36.52382,-3.187900,1160.00
36.55447,-3.188263,1162.00
36.58837,-3.188924,1164.00
36.62209,-3.188943,1166.00
36.65539,-3.188860,1168.00
36.68782,-3.189141,1170.00
36.71987,-3.188996,1172.00
36.75310,-3.189215,1174.00
36.78813,-3.189185,1176.00
36.82239,-3.188327,1178.00
36.85466,-3.188161,1180.00
36.88587,-3.187943,1182.00
36.91906,-3.187395,1184.00
36.95123,-3.187594,1186.00
36.98604,-3.188330,1188.00
37.02234,-3.189218,1190.00
37.05391,-3.189040,1192.00
37.09060,-3.189474,1194.00
37.12329,-3.189878,1196.00
37.15311,-3.189832,1198.00
37.18832,-3.189705,1200.00
37.22315,-3.189386,1202.00
37.25674,-3.188715,1204.00
37.28859,-3.188449,1206.00
37.32052,-3.188300,1208.00
37.35406,-3.188492,1210.00
37.38636,-3.189360,1212.00
37.42041,-3.189706,1214.00
37.45527,-3.189456,1216.00
37.48617,-3.189550,1218.00
37.51762,-3.188747,1220.00
37.54952,-3.189016,1222.00
37.58125,-3.188614,1224.00
37.61205,-3.188912,1226.00
37.64650,-3.188863,1228.00
37.68064,-3.189095,1230.00
37.71279,-3.189498,1232.00
37.74627,-3.189720,1234.00
37.77635,-3.188779,1236.00
37.80750,-3.188501,1238.00
37.84084,-3.188335,1240.00
37.87550,-3.188620,1242.00
37.90636,-3.188787,1244.00
37.93881,-3.188995,1246.00
37.97637,-3.189036,1248.00
38.01067,-3.189439,1250.00
38.04255,-3.189116,1252.00
38.07645,-3.188710,1254.00
38.10847,-3.188762,1256.00
38.14196,-3.188991,1258.00
38.17634,-3.189717,1260.00
38.20849,-3.189962,1262.00
38.24180,-3.190046,1264.00
38.27534,-3.190224,1266.00
38.30879,-3.190765,1268.00
38.34346,-3.190650,1270.00
38.37470,-3.190695,1272.00
38.40757,-3.191261,1274.00
38.44023,-3.191429,1276.00
38.47233,-3.191452,1278.00
38.50488,-3.191100,1280.00
38.53919,-3.190452,1282.00
38.57193,-3.190377,1284.00
38.60601,-3.190006,1286.00
38.64040,-3.189630,1288.00
38.67575,-3.189942,1290.00
38.70837,-3.190321,1292.00
38.74057,-3.191056,1294.00
38.77529,-3.191426,1296.00
38.81019,-3.191525,1298.00
38.84552,-3.191325,1300.00
38.87841,-3.191067,1302.00
38.91070,-3.190837,1304.00
38.94428,-3.190640,1306.00
38.97617,-3.190293,1308.00
39.00874,-3.190537,1310.00
39.04301,-3.191100,1312.00
39.07622,-3.191604,1314.00
39.10877,-3.192270,1316.00
39.14290,-3.192585,1318.00
39.17588,-3.192633,1320.00
39.21048,-3.192574,1322.00
39.24310,-3.191998,1324.00
39.27901,-3.191794,1326.00
39.31066,-3.191727,1328.00
39.34348,-3.192325,1330.00
39.37542,-3.192412,1332.00
39.40808,-3.193185,1334.00
39.44314,-3.193018,1336.00
39.47700,-3.193684,1338.00
39.51183,-3.193064,1340.00
39.54377,-3.192643,1342.00
39.57556,-3.192451,1344.00
