$DSC2
$Conventional
$Adiabatic Mode
$Scanrate Corrected-Programmed
$Baseline Subtraction Method: 0 File: NONE
$DP Corrected
$RTD Corrected
$MidGain FB,  0.75 
$ADCGainCode:  0 
$ 10 
$NOT
$ 10 
$ 0            20            25           False
$ 0 
$ 15           80            60            5             0             2             2             0 
$ 15           80            60            5             0             2             2             0 
$ 15           80            60            5             0             2             2             0 
$ 15           80            60            5             0             2             2             0 
$ 15           80            60            5             0             2             2             0 
$ 15           80            60            5             0             2             2             0 
$ 15           80            60            5             0             2             2             0 
$ 15           80            60            5             0             2             2             0 
$ 15           80            60            5             0             2             2             0 
$ 15           80            60            5             0             2             2             0 
# 0 
# 0.5197
# 0
# 11.63 
# 0.75 
# 10.743 
? 
% VPDSC02.06.462
% 0.51971 
% 11.63 
%-0.995356 , 100.17434 
% 3.676 
% 250 ,       -22.5 
% 1000.3 , 1000.3 
% 0.88219 ,-0.02026 
%-0.08266 , 0.02515 
% 1 , 0.055 
% 0.0522 
% 1 , 130 
% 0.080433 , 0.056504 
% 0 , 8 
% 0 , 18 
% 0.072589046661 ,-0.003235099108 , 8.240903228419E-06 , 2.357972384211E-07 ,-7.440723641986E-10 
% VPViewer2000 Ver: 1.4.14
@3
17.36649,-2.953969,2.00
17.40097,-2.953525,4.00
17.43389,-2.952835,6.00
17.46864,-2.951710,8.00
17.50197,-2.950962,10.00
17.53441,-2.951152,12.00
17.56753,-2.950923,14.00
17.60083,-2.950938,16.00
17.63142,-2.950543,18.00
17.66558,-2.950427,20.00
17.69822,-2.950805,22.00
17.73218,-2.950995,24.00
17.76682,-2.950626,26.00
17.79988,-2.950533,28.00
17.83261,-2.950186,30.00
17.86517,-2.950478,32.00
17.89758,-2.950155,34.00
17.93114,-2.949780,36.00
17.96368,-2.950282,38.00
18.00040,-2.950359,40.00
18.03188,-2.950373,42.00
18.06177,-2.949814,44.00
18.09571,-2.949897,46.00
18.13108,-2.950057,48.00
18.16237,-2.950116,50.00
18.19579,-2.950052,52.00
18.22903,-2.950623,54.00
18.26163,-2.950673,56.00
18.29490,-2.950509,58.00
18.32521,-2.950176,60.00
18.35577,-2.949663,62.00
18.38722,-2.949892,64.00
18.42243,-2.950109,66.00
18.45597,-2.949849,68.00
18.49003,-2.950231,70.00
18.52269,-2.949432,72.00
18.55823,-2.948663,74.00
18.58830,-2.948187,76.00
18.62334,-2.947811,78.00
18.65497,-2.947773,80.00
18.68903,-2.947587,82.00
18.72222,-2.946758,84.00
18.75652,-2.947347,86.00
18.78833,-2.947129,88.00
18.82179,-2.946395,90.00
18.85622,-2.945722,92.00
18.88772,-2.945109,94.00
18.92012,-2.944677,96.00
18.95318,-2.944456,98.00
18.98640,-2.944427,100.00
19.01814,-2.944625,102.00
19.05193,-2.944977,104.00
19.08564,-2.944997,106.00
19.11899,-2.944654,108.00
19.15293,-2.943839,110.00
19.18629,-2.943995,112.00
19.21895,-2.943803,114.00
19.25046,-2.943381,116.00
19.28407,-2.943463,118.00
19.31787,-2.943114,120.00
19.34854,-2.943340,122.00
19.37928,-2.943329,124.00
19.41214,-2.942852,126.00
19.44393,-2.942536,128.00
19.47679,-2.942423,130.00
19.50954,-2.941976,132.00
19.54382,-2.941697,134.00
19.57619,-2.941638,136.00
19.60919,-2.941727,138.00
19.64235,-2.941467,140.00
19.67566,-2.941842,142.00
19.70815,-2.941656,144.00
19.74311,-2.941376,146.00
19.77735,-2.941399,148.00
19.80851,-2.941639,150.00
19.83979,-2.941446,152.00
19.87291,-2.941492,154.00
19.90529,-2.941070,156.00
19.93904,-2.940948,158.00
19.97214,-2.941089,160.00
20.00417,-2.941093,162.00
20.03566,-2.940784,164.00
20.06732,-2.940603,166.00
20.10111,-2.940284,168.00
20.13630,-2.940052,170.00
20.16983,-2.940053,172.00
20.20265,-2.940099,174.00
20.23350,-2.939989,176.00
20.26727,-2.939695,178.00
20.30182,-2.940030,180.00
20.33620,-2.940081,182.00
20.36882,-2.940282,184.00
20.40157,-2.940260,186.00
20.43516,-2.940516,188.00
20.46603,-2.940367,190.00
20.50223,-2.940417,192.00
20.53528,-2.940111,194.00
20.56755,-2.940168,196.00
20.60181,-2.940396,198.00
20.63406,-2.940700,200.00
20.66910,-2.940710,202.00
20.70254,-2.940864,204.00
20.73662,-2.940624,206.00
20.76793,-2.940862,208.00
20.79911,-2.941458,210.00
20.83280,-2.941116,212.00
20.86688,-2.941043,214.00
20.89980,-2.940868,216.00
20.93256,-2.940823,218.00
20.96511,-2.940868,220.00
20.99827,-2.940516,222.00
21.03337,-2.939776,224.00
21.06631,-2.939786,226.00
21.09821,-2.940020,228.00
21.13413,-2.940138,230.00
21.16542,-2.939471,232.00
21.19945,-2.939230,234.00
21.22920,-2.938569,236.00
21.26203,-2.938771,238.00
21.29594,-2.938561,240.00
21.33030,-2.937770,242.00
21.36221,-2.937661,244.00
21.39500,-2.937397,246.00
21.42919,-2.937945,248.00
21.46170,-2.938258,250.00
21.49151,-2.938328,252.00
21.52599,-2.937646,254.00
21.55940,-2.936782,256.00
21.59200,-2.936619,258.00
21.62643,-2.936661,260.00
21.65870,-2.935825,262.00
21.69093,-2.935486,264.00
21.72375,-2.935152,266.00
21.75389,-2.934678,268.00
21.78867,-2.935087,270.00
21.82317,-2.934594,272.00
21.85580,-2.934025,274.00
21.88901,-2.933870,276.00
21.92134,-2.934129,278.00
21.95370,-2.934702,280.00
21.98441,-2.934425,282.00
22.02048,-2.934120,284.00
22.05257,-2.933818,286.00
22.08450,-2.933949,288.00
22.11865,-2.933568,290.00
22.15183,-2.933451,292.00
22.18503,-2.933652,294.00
22.21386,-2.933800,296.00
22.24583,-2.933714,298.00
22.28186,-2.933607,300.00
22.31399,-2.933632,302.00
22.34512,-2.933787,304.00
22.37885,-2.933881,306.00
22.41424,-2.933603,308.00
22.44886,-2.934055,310.00
22.48159,-2.933862,312.00
22.51539,-2.933181,314.00
22.54755,-2.933512,316.00
22.58051,-2.933762,318.00
22.61249,-2.933790,320.00
22.64429,-2.933784,322.00
22.67759,-2.933622,324.00
22.71154,-2.933355,326.00
22.74479,-2.933348,328.00
22.77806,-2.933608,330.00
22.81048,-2.933122,332.00
22.84113,-2.933286,334.00
22.87513,-2.933485,336.00
22.91123,-2.933404,338.00
22.94235,-2.933672,340.00
22.97642,-2.933495,342.00
23.00928,-2.933412,344.00
23.04295,-2.933625,346.00
23.07500,-2.933367,348.00
23.10725,-2.933443,350.00
23.14049,-2.933242,352.00
23.17277,-2.933250,354.00
23.20736,-2.933156,356.00
23.23995,-2.933309,358.00
23.27214,-2.933055,360.00
23.30734,-2.933415,362.00
23.34050,-2.933764,364.00
23.37362,-2.933880,366.00
23.40652,-2.933483,368.00
23.43819,-2.933166,370.00
23.46839,-2.932996,372.00
23.50221,-2.932649,374.00
23.53609,-2.932601,376.00
23.57158,-2.932825,378.00
23.60723,-2.933112,380.00
23.63838,-2.932027,382.00
23.67097,-2.932373,384.00
23.70550,-2.932386,386.00
23.73689,-2.932746,388.00
23.77077,-2.933271,390.00
23.80313,-2.933831,392.00
23.83493,-2.934004,394.00
23.86738,-2.934478,396.00
23.90029,-2.934830,398.00
23.93382,-2.935348,400.00
23.96433,-2.935782,402.00
23.99705,-2.935933,404.00
24.03027,-2.935906,406.00
24.06523,-2.936462,408.00
24.09704,-2.936582,410.00
24.13066,-2.937042,412.00
24.16473,-2.937273,414.00
24.19947,-2.937378,416.00
24.23255,-2.937795,418.00
24.26446,-2.937606,420.00
24.29704,-2.937657,422.00
24.33005,-2.937415,424.00
24.36455,-2.937689,426.00
24.39805,-2.937501,428.00
24.42958,-2.937137,430.00
24.46294,-2.937202,432.00
24.49505,-2.937463,434.00
24.53001,-2.937011,436.00
24.56212,-2.936249,438.00
24.59266,-2.935989,440.00
24.62525,-2.936201,442.00
24.66060,-2.935819,444.00
24.69415,-2.935716,446.00
24.72618,-2.935133,448.00
24.76115,-2.935023,450.00
24.79409,-2.935269,452.00
24.82861,-2.935066,454.00
24.86038,-2.934921,456.00
24.89390,-2.935059,458.00
24.92650,-2.935299,460.00
24.96000,-2.935267,462.00
24.99310,-2.935358,464.00
25.02539,-2.935644,466.00
25.06066,-2.935629,468.00
25.09190,-2.935946,470.00
25.12452,-2.936655,472.00
25.15785,-2.936925,474.00
25.19126,-2.936918,476.00
25.22263,-2.937251,478.00
25.25788,-2.937589,480.00
25.29118,-2.937850,482.00
25.32461,-2.938307,484.00
25.35605,-2.938560,486.00
25.38881,-2.938743,488.00
25.41907,-2.939541,490.00
25.45263,-2.939987,492.00
25.48751,-2.940254,494.00
25.52017,-2.940516,496.00
25.55175,-2.940491,498.00
25.58628,-2.940670,500.00
25.61871,-2.940844,502.00
25.65112,-2.941623,504.00
25.68536,-2.942501,506.00
25.71835,-2.942880,508.00
25.75162,-2.943313,510.00
25.78473,-2.944036,512.00
25.81823,-2.944782,514.00
25.84935,-2.945854,516.00
25.88148,-2.946375,518.00
25.91383,-2.947300,520.00
25.94829,-2.948217,522.00
25.98210,-2.949377,524.00
26.01435,-2.950452,526.00
26.04887,-2.951401,528.00
26.08111,-2.952468,530.00
26.11235,-2.953692,532.00
26.14755,-2.954473,534.00
26.17807,-2.955477,536.00
26.21201,-2.956761,538.00
26.24337,-2.958254,540.00
26.27750,-2.959795,542.00
26.31078,-2.960530,544.00
26.34368,-2.961522,546.00
26.37663,-2.963137,548.00
26.41244,-2.964353,550.00
26.44451,-2.965871,552.00
26.47645,-2.966770,554.00
26.51109,-2.967895,556.00
26.54348,-2.968691,558.00
26.57575,-2.970227,560.00
26.60847,-2.971690,562.00
26.64409,-2.973603,564.00
26.67640,-2.975684,566.00
26.70880,-2.977394,568.00
26.74137,-2.979925,570.00
26.77653,-2.982513,572.00
26.80961,-2.985130,574.00
26.84014,-2.987871,576.00
26.87298,-2.990769,578.00
26.90651,-2.994404,580.00
26.93894,-2.997970,582.00
26.96949,-3.001941,584.00
27.00338,-3.006245,586.00
27.03607,-3.010917,588.00
27.07156,-3.016643,590.00
27.10691,-3.022501,592.00
27.13865,-3.029292,594.00
27.17109,-3.036503,596.00
27.20355,-3.044856,598.00
27.23548,-3.053795,600.00
27.26990,-3.064073,602.00
27.30314,-3.075221,604.00
27.33506,-3.087853,606.00
27.36957,-3.103002,608.00
27.40253,-3.118626,610.00
27.43464,-3.137345,612.00
27.47025,-3.159060,614.00
27.50364,-3.183706,616.00
27.53663,-3.213464,618.00
27.56987,-3.248987,620.00
27.60338,-3.291395,622.00
27.63640,-3.343340,624.00
27.67068,-3.406941,626.00
27.70147,-3.485593,628.00
27.73655,-3.585931,630.00
27.76902,-3.713743,632.00
27.80447,-3.882187,634.00
27.83845,-4.105851,636.00
27.86904,-4.404738,638.00
27.90021,-4.787460,640.00
27.93304,-5.230674,642.00
27.96649,-5.713239,644.00
28.00019,-6.262348,646.00
28.03631,-6.891863,648.00
28.07112,-7.618854,650.00
28.10321,-8.399477,652.00
28.13650,-9.022409,654.00
28.16959,-9.233775,656.00
28.20219,-8.937157,658.00
28.23521,-8.255866,660.00
28.26998,-7.451549,662.00
28.30150,-6.697305,664.00
28.33436,-6.043164,666.00
28.36945,-5.492586,668.00
28.40128,-5.033862,670.00
28.43235,-4.655173,672.00
28.46678,-4.343056,674.00
28.50019,-4.086338,676.00
28.53467,-3.874987,678.00
28.56587,-3.701208,680.00
28.59845,-3.559392,682.00
28.62975,-3.442354,684.00
28.66257,-3.346186,686.00
28.69648,-3.267179,688.00
28.73123,-3.203060,690.00
28.76291,-3.150201,692.00
28.79671,-3.108099,694.00
28.82947,-3.073062,696.00
28.86360,-3.044031,698.00
28.89731,-3.020262,700.00
28.93055,-3.001613,702.00
28.96240,-2.986685,704.00
28.99507,-2.974409,706.00
29.02899,-2.963738,708.00
29.06372,-2.955846,710.00
29.09687,-2.948686,712.00
29.12932,-2.943803,714.00
29.16389,-2.939577,716.00
29.19695,-2.937100,718.00
29.22939,-2.935680,720.00
29.26030,-2.935137,722.00
29.29273,-2.934739,724.00
29.32628,-2.935064,726.00
29.35882,-2.934819,728.00
29.39373,-2.934417,730.00
29.42508,-2.933155,732.00
29.45987,-2.931004,734.00
29.49149,-2.928491,736.00
29.52608,-2.926001,738.00
29.55964,-2.924569,740.00
29.59244,-2.922910,742.00
29.62745,-2.921452,744.00
29.66095,-2.920162,746.00
29.69314,-2.919038,748.00
29.72663,-2.918094,750.00
29.76140,-2.917220,752.00
29.79698,-2.916878,754.00
29.82775,-2.916223,756.00
29.86106,-2.915301,758.00
29.89431,-2.914795,760.00
29.92529,-2.914245,762.00
29.95731,-2.913384,764.00
29.98798,-2.912811,766.00
30.02065,-2.911918,768.00
30.05421,-2.911924,770.00
30.08756,-2.911906,772.00
30.12035,-2.911128,774.00
30.15260,-2.911406,776.00
30.18852,-2.910670,778.00
30.22028,-2.910267,780.00
30.25418,-2.910063,782.00
30.28749,-2.910426,784.00
30.31708,-2.910262,786.00
30.35326,-2.910143,788.00
30.38608,-2.910324,790.00
30.41897,-2.910474,792.00
30.45209,-2.910231,794.00
30.48627,-2.909974,796.00
30.52086,-2.910384,798.00
30.55200,-2.910472,800.00
30.58751,-2.910522,802.00
30.61998,-2.910478,804.00
30.65470,-2.910402,806.00
30.68923,-2.910680,808.00
30.72176,-2.910897,810.00
30.75430,-2.910889,812.00
30.78801,-2.910779,814.00
30.82146,-2.910882,816.00
30.85483,-2.910560,818.00
30.88998,-2.910677,820.00
30.92438,-2.910701,822.00
30.95680,-2.910327,824.00
30.98921,-2.909634,826.00
31.02151,-2.909646,828.00
31.05546,-2.909128,830.00
31.08991,-2.908822,832.00
31.12542,-2.908888,834.00
31.15807,-2.908570,836.00
31.19224,-2.907874,838.00
31.22703,-2.907770,840.00
31.25967,-2.908050,842.00
31.29062,-2.908478,844.00
31.32454,-2.908567,846.00
31.35869,-2.908065,848.00
31.39104,-2.908061,850.00
31.42233,-2.907953,852.00
31.45396,-2.907885,854.00
31.48930,-2.907936,856.00
31.52065,-2.907937,858.00
31.55404,-2.907555,860.00
31.58737,-2.907230,862.00
31.62219,-2.907125,864.00
31.65370,-2.907669,866.00
31.68754,-2.907650,868.00
31.71976,-2.908074,870.00
31.75250,-2.908041,872.00
31.78503,-2.908121,874.00
31.82229,-2.907889,876.00
31.85504,-2.908049,878.00
31.88590,-2.908881,880.00
31.91970,-2.908669,882.00
31.95445,-2.908480,884.00
31.98694,-2.908373,886.00
32.01947,-2.907914,888.00
32.05252,-2.907919,890.00
32.08654,-2.907611,892.00
32.11968,-2.907486,894.00
32.15209,-2.907671,896.00
32.18538,-2.907587,898.00
32.21904,-2.907544,900.00
32.25191,-2.907181,902.00
32.28430,-2.907681,904.00
32.31684,-2.907584,906.00
32.34875,-2.908052,908.00
32.38298,-2.908169,910.00
32.41628,-2.908700,912.00
32.45121,-2.908149,914.00
32.48356,-2.907952,916.00
32.51796,-2.908039,918.00
32.54998,-2.907963,920.00
32.58345,-2.907769,922.00
32.61503,-2.907751,924.00
32.65068,-2.908298,926.00
32.68435,-2.908597,928.00
32.71883,-2.908721,930.00
32.75034,-2.909069,932.00
32.78342,-2.908698,934.00
32.81596,-2.908713,936.00
32.84862,-2.909068,938.00
32.88006,-2.909001,940.00
32.91452,-2.909478,942.00
32.94923,-2.909545,944.00
32.98320,-2.909403,946.00
33.01574,-2.909492,948.00
33.04704,-2.908939,950.00
33.08006,-2.908857,952.00
33.11525,-2.908773,954.00
33.15032,-2.908468,956.00
33.18313,-2.908303,958.00
33.21770,-2.907721,960.00
33.25126,-2.906833,962.00
33.28545,-2.906610,964.00
33.31698,-2.906430,966.00
33.34729,-2.906450,968.00
33.38346,-2.906305,970.00
33.41684,-2.905865,972.00
33.44689,-2.905776,974.00
33.48058,-2.905818,976.00
33.51289,-2.906273,978.00
33.54391,-2.906777,980.00
33.57865,-2.906528,982.00
33.61200,-2.906935,984.00
33.64535,-2.907340,986.00
33.67755,-2.907398,988.00
33.71407,-2.907294,990.00
33.74570,-2.907585,992.00
33.78068,-2.907614,994.00
33.81284,-2.907608,996.00
33.84649,-2.907795,998.00
33.87643,-2.907133,1000.00
33.90697,-2.906800,1002.00
33.94031,-2.906963,1004.00
33.97235,-2.906964,1006.00
34.00832,-2.906397,1008.00
34.04141,-2.906066,1010.00
34.07358,-2.905270,1012.00
34.10576,-2.904514,1014.00
34.13771,-2.904561,1016.00
34.17302,-2.904635,1018.00
34.20598,-2.904309,1020.00
34.23933,-2.904307,1022.00
34.27184,-2.904571,1024.00
34.30506,-2.904532,1026.00
34.34114,-2.904425,1028.00
34.37250,-2.904219,1030.00
34.40555,-2.904079,1032.00
34.43823,-2.903967,1034.00
34.47369,-2.903974,1036.00
34.50628,-2.904157,1038.00
34.53569,-2.904603,1040.00
34.57045,-2.904588,1042.00
34.60256,-2.905163,1044.00
34.63533,-2.905114,1046.00
34.67043,-2.905114,1048.00
34.70237,-2.905575,1050.00
34.73574,-2.905740,1052.00
34.76739,-2.906265,1054.00
34.80192,-2.906318,1056.00
34.83534,-2.906377,1058.00
34.86652,-2.905712,1060.00
34.89967,-2.905714,1062.00
34.93409,-2.906427,1064.00
34.97017,-2.906621,1066.00
35.00138,-2.906889,1068.00
35.03267,-2.906881,1070.00
35.06542,-2.906778,1072.00
35.09852,-2.906566,1074.00
35.13219,-2.906007,1076.00
35.16623,-2.906285,1078.00
35.19994,-2.906386,1080.00
35.23196,-2.906457,1082.00
35.26499,-2.906151,1084.00
35.29847,-2.906621,1086.00
35.33024,-2.906461,1088.00
35.36362,-2.906223,1090.00
35.39539,-2.906400,1092.00
35.42929,-2.906639,1094.00
35.46315,-2.906747,1096.00
35.49775,-2.906703,1098.00
35.53197,-2.906613,1100.00
35.56608,-2.905580,1102.00
35.59614,-2.905760,1104.00
35.63070,-2.905487,1106.00
35.66476,-2.905936,1108.00
35.69931,-2.905104,1110.00
35.73245,-2.905047,1112.00
35.76539,-2.905092,1114.00
35.79832,-2.904561,1116.00
35.83340,-2.904854,1118.00
35.86661,-2.904543,1120.00
35.89837,-2.904570,1122.00
35.93250,-2.904511,1124.00
35.96602,-2.904865,1126.00
35.99736,-2.905216,1128.00
36.02870,-2.905833,1130.00
36.06538,-2.905707,1132.00
36.09807,-2.906000,1134.00
36.13170,-2.906471,1136.00
36.16502,-2.906200,1138.00
36.19768,-2.905789,1140.00
36.23170,-2.905317,1142.00
36.26567,-2.905367,1144.00
36.29771,-2.905411,1146.00
36.32991,-2.905691,1148.00
36.36519,-2.905969,1150.00
36.39738,-2.905585,1152.00
36.43022,-2.905367,1154.00
36.46465,-2.905146,1156.00
36.49536,-2.904669,1158.00
36.52896,-2.904745,1160.00
36.56055,-2.904576,1162.00
36.59339,-2.905198,1164.00
36.62653,-2.905347,1166.00
36.65978,-2.905400,1168.00
36.69475,-2.905306,1170.00
36.72792,-2.905633,1172.00
36.76110,-2.906283,1174.00
36.79496,-2.905578,1176.00
36.82768,-2.905458,1178.00
36.85991,-2.905871,1180.00
36.89442,-2.905835,1182.00
36.92690,-2.905293,1184.00
36.95822,-2.905238,1186.00
36.99156,-2.904975,1188.00
37.02563,-2.904850,1190.00
37.05457,-2.904332,1192.00
37.08882,-2.903693,1194.00
37.12310,-2.902702,1196.00
37.15720,-2.902721,1198.00
37.19051,-2.903286,1200.00
37.22296,-2.902926,1202.00
37.25539,-2.902998,1204.00
37.28877,-2.903172,1206.00
37.32108,-2.903241,1208.00
37.35386,-2.903238,1210.00
37.38853,-2.903538,1212.00
37.42227,-2.904495,1214.00
37.45448,-2.904597,1216.00
37.48840,-2.904603,1218.00
37.52197,-2.904629,1220.00
37.55571,-2.904716,1222.00
37.59004,-2.904410,1224.00
37.62052,-2.904791,1226.00
37.65569,-2.904562,1228.00
37.68862,-2.904608,1230.00
37.72110,-2.905349,1232.00
37.75314,-2.905293,1234.00
37.78624,-2.905254,1236.00
37.82182,-2.905592,1238.00
37.85411,-2.905238,1240.00
37.88451,-2.904971,1242.00
37.92084,-2.905129,1244.00
37.95306,-2.904517,1246.00
37.98665,-2.904918,1248.00
38.01904,-2.905332,1250.00
38.04803,-2.905226,1252.00
38.08223,-2.905358,1254.00
38.11872,-2.906054,1256.00
38.15266,-2.906303,1258.00
38.18524,-2.906874,1260.00
38.21702,-2.906721,1262.00
38.24985,-2.906772,1264.00
38.28392,-2.906717,1266.00
38.31674,-2.906709,1268.00
38.35055,-2.906140,1270.00
38.38373,-2.905872,1272.00
38.41582,-2.905703,1274.00
38.44902,-2.905068,1276.00
38.48174,-2.904129,1278.00
38.51450,-2.904143,1280.00
38.54826,-2.904038,1282.00
38.58192,-2.904351,1284.00
38.61440,-2.904694,1286.00
38.64784,-2.905155,1288.00
38.68095,-2.905521,1290.00
38.71495,-2.905766,1292.00
38.74692,-2.905743,1294.00
38.77948,-2.906033,1296.00
38.81292,-2.905782,1298.00
38.84344,-2.905953,1300.00
38.87678,-2.905625,1302.00
38.90942,-2.905478,1304.00
38.94172,-2.905463,1306.00
38.97577,-2.905617,1308.00
39.00906,-2.904989,1310.00
39.04118,-2.905111,1312.00
39.07541,-2.905562,1314.00
39.10926,-2.905590,1316.00
39.14403,-2.905417,1318.00
39.17537,-2.905381,1320.00
39.21038,-2.905687,1322.00
39.24187,-2.905576,1324.00
39.27293,-2.906022,1326.00
39.30813,-2.906099,1328.00
39.34118,-2.906395,1330.00
39.37385,-2.906304,1332.00
39.40708,-2.906115,1334.00
39.44133,-2.906159,1336.00
39.47441,-2.905463,1338.00
39.50795,-2.905817,1340.00
39.54301,-2.906080,1342.00
39.57437,-2.906192,1344.00
