$DSC2
$Conventional
$Adiabatic Mode
$Scanrate Corrected-Programmed
$Baseline Subtraction Method: 0 File: NONE
$DP Corrected
$RTD Corrected
$MidGain FB,  0.75 
$ADCGainCode:  0 
$ 10 
$NOT
$ 10 
$ 0            20            25           False
$ 0 
$ 15           80            60            5             0             2             2             0 
$ 15           80            60            5             0             2             2             0 
$ 15           80            60            5             0             2             2             0 
$ 15           80            60            5             0             2             2             0 
$ 15           80            60            5             0             2             2             0 
$ 15           80            60            5             0             2             2             0 
$ 15           80            60            5             0             2             2             0 
$ 15           80            60            5             0             2             2             0 
$ 15           80            60            5             0             2             2             0 
$ 15           80            60            5             0             2             2             0 
# 0 
# 0.5197
# 0
# 11.63 
# 0.75 
# 10.743 
? 
% VPDSC02.06.462
% 0.51971 
% 11.63 
%-0.995356 , 100.17434 
% 3.676 
% 250 ,       -22.5 
% 1000.3 , 1000.3 
% 0.88219 ,-0.02026 
%-0.08266 , 0.02515 
% 1 , 0.055 
% 0.0522 
% 1 , 130 
% 0.080433 , 0.056504 
% 0 , 8 
% 0 , 18 
% 0.072589046661 ,-0.003235099108 , 8.240903228419E-06 , 2.357972384211E-07 ,-7.440723641986E-10 
% VPViewer2000 Ver: 1.4.14
@9
17.40460,-3.209688,2.00
17.43795,-3.209404,4.00
17.47127,-3.209077,6.00
17.50208,-3.208649,8.00
17.53501,-3.208656,10.00
17.56582,-3.208116,12.00
17.59740,-3.207662,14.00
17.63242,-3.207571,16.00
17.66794,-3.207463,18.00
17.69790,-3.208022,20.00
17.73238,-3.208022,22.00
17.76437,-3.208323,24.00
17.79436,-3.208587,26.00
17.83050,-3.208403,28.00
17.86232,-3.207853,30.00
17.89543,-3.207569,32.00
17.92753,-3.206948,34.00
17.96109,-3.206603,36.00
17.99280,-3.206530,38.00
18.02660,-3.206697,40.00
18.05795,-3.207341,42.00
18.08954,-3.207468,44.00
18.12183,-3.207592,46.00
18.15337,-3.207555,48.00
18.18567,-3.207387,50.00
18.21875,-3.206948,52.00
18.25123,-3.206625,54.00
18.28415,-3.206600,56.00
18.31319,-3.206348,58.00
18.34435,-3.206382,60.00
18.37903,-3.206490,62.00
18.41009,-3.206521,64.00
18.44412,-3.206764,66.00
18.47566,-3.207046,68.00
18.50749,-3.206871,70.00
18.53929,-3.206720,72.00
18.57424,-3.206537,74.00
18.60919,-3.206569,76.00
18.64301,-3.206159,78.00
18.67258,-3.206006,80.00
18.70556,-3.205602,82.00
18.74050,-3.206052,84.00
18.77176,-3.206046,86.00
18.80298,-3.205861,88.00
18.83547,-3.205806,90.00
18.86781,-3.205577,92.00
18.89983,-3.205630,94.00
18.93272,-3.204854,96.00
18.96498,-3.204763,98.00
18.99747,-3.205086,100.00
19.03128,-3.204576,102.00
19.06451,-3.204654,104.00
19.09608,-3.205051,106.00
19.12716,-3.204249,108.00
19.16010,-3.203393,110.00
19.19401,-3.202887,112.00
19.22877,-3.202604,114.00
19.26106,-3.202500,116.00
19.29289,-3.202853,118.00
19.32431,-3.202677,120.00
19.35869,-3.203151,122.00
19.39063,-3.203385,124.00
19.42358,-3.203312,126.00
19.45602,-3.203206,128.00
19.49175,-3.202974,130.00
19.52586,-3.203267,132.00
19.56144,-3.202638,134.00
19.59261,-3.201489,136.00
19.62160,-3.201397,138.00
19.65279,-3.201406,140.00
19.68613,-3.201808,142.00
19.71972,-3.201860,144.00
19.75430,-3.202140,146.00
19.78563,-3.201667,148.00
19.81711,-3.201709,150.00
19.85138,-3.202242,152.00
19.88258,-3.202742,154.00
19.91523,-3.202574,156.00
19.94864,-3.202545,158.00
19.97880,-3.203049,160.00
20.01048,-3.202870,162.00
20.04131,-3.202300,164.00
20.07528,-3.201006,166.00
20.10983,-3.200455,168.00
20.14376,-3.200656,170.00
20.17509,-3.200127,172.00
20.20999,-3.200192,174.00
20.24117,-3.200604,176.00
20.27337,-3.200889,178.00
20.30979,-3.201658,180.00
20.34272,-3.201946,182.00
20.37511,-3.200921,184.00
20.40750,-3.200484,186.00
20.44084,-3.200267,188.00
20.47308,-3.200467,190.00
20.50562,-3.200724,192.00
20.53742,-3.200683,194.00
20.57357,-3.200686,196.00
20.60636,-3.200965,198.00
20.63664,-3.201303,200.00
20.66821,-3.201149,202.00
20.70219,-3.200438,204.00
20.73354,-3.200026,206.00
20.76622,-3.199843,208.00
20.80033,-3.200008,210.00
20.83473,-3.200147,212.00
20.86628,-3.199896,214.00
20.89810,-3.199572,216.00
20.93356,-3.199563,218.00
20.96255,-3.199142,220.00
20.99731,-3.198598,222.00
21.03113,-3.198388,224.00
21.06439,-3.198603,226.00
21.09755,-3.198785,228.00
21.13154,-3.198770,230.00
21.16229,-3.198810,232.00
21.19369,-3.198900,234.00
21.22917,-3.198460,236.00
21.26054,-3.197942,238.00
21.29445,-3.197373,240.00
21.32881,-3.196670,242.00
21.36209,-3.196405,244.00
21.39451,-3.196307,246.00
21.42663,-3.197090,248.00
21.46056,-3.197099,250.00
21.49572,-3.197090,252.00
21.53001,-3.197271,254.00
21.56145,-3.197277,256.00
21.59354,-3.197585,258.00
21.62469,-3.197971,260.00
21.65906,-3.197951,262.00
21.69117,-3.197679,264.00
21.72435,-3.197226,266.00
21.75839,-3.196457,268.00
21.79305,-3.196276,270.00
21.82695,-3.196227,272.00
21.85925,-3.196580,274.00
21.89249,-3.196627,276.00
21.92492,-3.197151,278.00
21.95868,-3.197619,280.00
21.99015,-3.197031,282.00
22.02205,-3.196270,284.00
22.05633,-3.195939,286.00
22.09250,-3.196069,288.00
22.12597,-3.195826,290.00
22.15927,-3.195727,292.00
22.18831,-3.196071,294.00
22.21893,-3.196812,296.00
22.25150,-3.197098,298.00
22.28578,-3.197246,300.00
22.32000,-3.196433,302.00
22.35303,-3.196639,304.00
22.38596,-3.196441,306.00
22.42008,-3.196984,308.00
22.45140,-3.197029,310.00
22.48275,-3.197229,312.00
22.51569,-3.197428,314.00
22.54919,-3.197194,316.00
22.58319,-3.196580,318.00
22.61609,-3.195989,320.00
22.64986,-3.195338,322.00
22.68306,-3.194702,324.00
22.71683,-3.195171,326.00
22.75022,-3.195584,328.00
22.78370,-3.196187,330.00
22.81669,-3.196737,332.00
22.85058,-3.196828,334.00
22.88361,-3.196418,336.00
22.91516,-3.196276,338.00
22.95108,-3.196119,340.00
22.98533,-3.195196,342.00
23.01598,-3.194828,344.00
23.04933,-3.194817,346.00
23.08291,-3.194979,348.00
23.11445,-3.195598,350.00
23.14596,-3.195529,352.00
23.17987,-3.195369,354.00
23.21232,-3.195250,356.00
23.24409,-3.195638,358.00
23.27646,-3.195918,360.00
23.31041,-3.195932,362.00
23.34517,-3.196300,364.00
23.37613,-3.195708,366.00
23.40808,-3.196055,368.00
23.44195,-3.195420,370.00
23.47476,-3.195046,372.00
23.50691,-3.195108,374.00
23.54218,-3.195636,376.00
23.57463,-3.195903,378.00
23.60694,-3.195950,380.00
23.64211,-3.195910,382.00
23.67468,-3.196055,384.00
23.70272,-3.195620,386.00
23.73879,-3.195588,388.00
23.77223,-3.195261,390.00
23.80743,-3.195200,392.00
23.84018,-3.195090,394.00
23.87157,-3.195289,396.00
23.90424,-3.195525,398.00
23.93901,-3.196090,400.00
23.97093,-3.195943,402.00
24.00371,-3.195788,404.00
24.03869,-3.195787,406.00
24.07318,-3.196228,408.00
24.10367,-3.195601,410.00
24.13577,-3.195715,412.00
24.17025,-3.195222,414.00
24.20513,-3.195137,416.00
24.23766,-3.195385,418.00
24.27143,-3.195990,420.00
24.30362,-3.196259,422.00
24.33578,-3.196318,424.00
24.37013,-3.196524,426.00
24.40396,-3.196553,428.00
24.43565,-3.195964,430.00
24.46934,-3.196171,432.00
24.50173,-3.196384,434.00
24.53505,-3.196078,436.00
24.56988,-3.195882,438.00
24.60099,-3.195570,440.00
24.63241,-3.196002,442.00
24.66691,-3.196205,444.00
24.70065,-3.195739,446.00
24.73500,-3.196285,448.00
24.76667,-3.196570,450.00
24.80052,-3.196970,452.00
24.83394,-3.197418,454.00
24.86725,-3.197775,456.00
24.90072,-3.197789,458.00
24.93251,-3.197532,460.00
24.96475,-3.198076,462.00
24.99833,-3.198324,464.00
25.03373,-3.198695,466.00
25.06747,-3.198494,468.00
25.09878,-3.197790,470.00
25.13186,-3.197541,472.00
25.16563,-3.197641,474.00
25.19951,-3.197805,476.00
25.23226,-3.197468,478.00
25.26475,-3.197855,480.00
25.30064,-3.198247,482.00
25.33354,-3.198677,484.00
25.36391,-3.198796,486.00
25.39666,-3.198814,488.00
25.43153,-3.198557,490.00
25.46571,-3.198262,492.00
25.49799,-3.198895,494.00
25.52956,-3.199433,496.00
25.56435,-3.199567,498.00
25.59898,-3.200327,500.00
25.63066,-3.200851,502.00
25.66248,-3.201322,504.00
25.69359,-3.201608,506.00
25.72953,-3.202151,508.00
25.76323,-3.202377,510.00
25.79782,-3.201728,512.00
25.83028,-3.202519,514.00
25.86311,-3.202955,516.00
25.89590,-3.203568,518.00
25.93078,-3.204480,520.00
25.96433,-3.205115,522.00
25.99693,-3.205771,524.00
26.03009,-3.206590,526.00
26.06356,-3.207343,528.00
26.09434,-3.207359,530.00
26.12405,-3.207531,532.00
26.15663,-3.208134,534.00
26.18959,-3.209023,536.00
26.22623,-3.210175,538.00
26.25859,-3.210754,540.00
26.29068,-3.211216,542.00
26.32360,-3.212429,544.00
26.35567,-3.213401,546.00
26.39061,-3.214536,548.00
26.42450,-3.215267,550.00
26.45856,-3.215471,552.00
26.49101,-3.216292,554.00
26.52320,-3.217444,556.00
26.55617,-3.218678,558.00
26.58862,-3.219639,560.00
26.62132,-3.220916,562.00
26.65725,-3.222518,564.00
26.68953,-3.224128,566.00
26.72191,-3.225779,568.00
26.75536,-3.228289,570.00
26.79182,-3.230726,572.00
26.82620,-3.233131,574.00
26.85710,-3.235656,576.00
26.88978,-3.237834,578.00
26.92514,-3.240405,580.00
26.95736,-3.243281,582.00
26.98909,-3.246115,584.00
27.02163,-3.249580,586.00
27.05379,-3.253836,588.00
27.08851,-3.257708,590.00
27.12210,-3.262016,592.00
27.15238,-3.266717,594.00
27.18700,-3.272049,596.00
27.22030,-3.277633,598.00
27.25423,-3.283472,600.00
27.28670,-3.290574,602.00
27.31922,-3.299233,604.00
27.35329,-3.308644,606.00
27.38410,-3.318743,608.00
27.41951,-3.331240,610.00
27.45191,-3.345881,612.00
27.48419,-3.362915,614.00
27.51731,-3.382899,616.00
27.54987,-3.406363,618.00
27.58437,-3.434322,620.00
27.61560,-3.467647,622.00
27.64896,-3.509187,624.00
27.68036,-3.560517,626.00
27.71419,-3.624626,628.00
27.74665,-3.707774,630.00
27.78152,-3.816995,632.00
27.81310,-3.960252,634.00
27.84572,-4.149696,636.00
27.87813,-4.389553,638.00
27.91467,-4.663167,640.00
27.94427,-4.963477,642.00
27.97778,-5.305901,644.00
28.01217,-5.669551,646.00
28.04696,-6.035084,648.00
28.07832,-6.410033,650.00
28.11239,-6.789390,652.00
28.14369,-7.041730,654.00
28.17878,-6.983296,656.00
28.21346,-6.624077,658.00
28.24651,-6.125661,660.00
28.27875,-5.640573,662.00
28.31101,-5.216106,664.00
28.34262,-4.857226,666.00
28.37655,-4.559919,668.00
28.41158,-4.313242,670.00
28.44212,-4.109576,672.00
28.47647,-3.942627,674.00
28.51067,-3.804876,676.00
28.54125,-3.691089,678.00
28.57242,-3.599133,680.00
28.60664,-3.522609,682.00
28.64012,-3.459784,684.00
28.67360,-3.408263,686.00
28.70877,-3.365127,688.00
28.73949,-3.330501,690.00
28.77568,-3.302596,692.00
28.81080,-3.280170,694.00
28.84522,-3.261910,696.00
28.87933,-3.246414,698.00
28.91212,-3.233849,700.00
28.94414,-3.223715,702.00
28.97716,-3.215667,704.00
29.01058,-3.208626,706.00
29.04445,-3.202029,708.00
29.07432,-3.196511,710.00
29.10786,-3.192159,712.00
29.14230,-3.189842,714.00
29.17475,-3.188191,716.00
29.20891,-3.187617,718.00
29.24072,-3.188226,720.00
29.27201,-3.189640,722.00
29.30769,-3.190892,724.00
29.34061,-3.192654,726.00
29.37148,-3.194283,728.00
29.40428,-3.194776,730.00
29.43911,-3.194414,732.00
29.47260,-3.192481,734.00
29.50591,-3.189967,736.00
29.53726,-3.187891,738.00
29.57169,-3.186182,740.00
29.60202,-3.184664,742.00
29.63469,-3.183004,744.00
29.66973,-3.182072,746.00
29.70378,-3.181241,748.00
29.73497,-3.180379,750.00
29.76844,-3.179242,752.00
29.80306,-3.178971,754.00
29.83588,-3.178055,756.00
29.86919,-3.177184,758.00
29.90083,-3.177039,760.00
29.93327,-3.176606,762.00
29.96260,-3.175748,764.00
29.99160,-3.174983,766.00
30.02328,-3.174542,768.00
30.05733,-3.174122,770.00
30.08825,-3.173960,772.00
30.12087,-3.174291,774.00
30.15673,-3.174304,776.00
30.18862,-3.174527,778.00
30.22289,-3.174360,780.00
30.25657,-3.174172,782.00
30.28901,-3.174078,784.00
30.32356,-3.173934,786.00
30.35498,-3.173850,788.00
30.38679,-3.173945,790.00
30.41957,-3.174110,792.00
30.45365,-3.174440,794.00
30.48635,-3.174659,796.00
30.51887,-3.174895,798.00
30.54901,-3.174745,800.00
30.58268,-3.174022,802.00
30.61940,-3.173496,804.00
30.65135,-3.172866,806.00
30.68532,-3.172326,808.00
30.72423,-3.172588,810.00
30.75651,-3.172829,812.00
30.78661,-3.172861,814.00
30.82046,-3.173490,816.00
30.85465,-3.174293,818.00
30.88456,-3.174664,820.00
30.92039,-3.174895,822.00
30.95417,-3.174629,824.00
30.98941,-3.174313,826.00
31.02334,-3.174056,828.00
31.05551,-3.173850,830.00
31.08836,-3.173643,832.00
31.12170,-3.172935,834.00
31.15393,-3.172382,836.00
31.18611,-3.172171,838.00
31.21840,-3.172480,840.00
31.25136,-3.173121,842.00
31.28300,-3.173815,844.00
31.31679,-3.173751,846.00
31.34972,-3.173728,848.00
31.38248,-3.173818,850.00
31.41506,-3.173629,852.00
31.44759,-3.173518,854.00
31.48098,-3.173844,856.00
31.51345,-3.173747,858.00
31.54833,-3.173821,860.00
31.58194,-3.172769,862.00
31.61550,-3.172811,864.00
31.64871,-3.173170,866.00
31.68281,-3.173303,868.00
31.71708,-3.172806,870.00
31.74981,-3.172689,872.00
31.78287,-3.172586,874.00
31.81453,-3.172025,876.00
31.84620,-3.172139,878.00
31.87985,-3.172398,880.00
31.91428,-3.171877,882.00
31.94526,-3.172198,884.00
31.97948,-3.171788,886.00
32.01364,-3.172710,888.00
32.04599,-3.173072,890.00
32.07869,-3.173001,892.00
32.11291,-3.173247,894.00
32.14435,-3.173450,896.00
32.17858,-3.173354,898.00
32.21176,-3.173184,900.00
32.24529,-3.172590,902.00
32.27809,-3.172136,904.00
32.31105,-3.171985,906.00
32.34601,-3.171760,908.00
32.37651,-3.171224,910.00
32.41042,-3.171020,912.00
32.44224,-3.170945,914.00
32.47601,-3.170720,916.00
32.50946,-3.170695,918.00
32.54427,-3.170517,920.00
32.57787,-3.170818,922.00
32.60871,-3.171149,924.00
32.64057,-3.171998,926.00
32.67576,-3.172595,928.00
32.70756,-3.172824,930.00
32.74061,-3.172933,932.00
32.77522,-3.173276,934.00
32.81057,-3.173199,936.00
32.84057,-3.173034,938.00
32.87287,-3.172439,940.00
32.90775,-3.172097,942.00
32.93810,-3.171574,944.00
32.97111,-3.171549,946.00
33.00549,-3.171214,948.00
33.03782,-3.171464,950.00
33.07067,-3.172270,952.00
33.10258,-3.172473,954.00
33.13658,-3.172430,956.00
33.16856,-3.172430,958.00
33.20206,-3.171779,960.00
33.23481,-3.172040,962.00
33.26865,-3.171999,964.00
33.30039,-3.171875,966.00
33.33406,-3.171226,968.00
33.36971,-3.171038,970.00
33.40467,-3.170566,972.00
33.43761,-3.170285,974.00
33.47070,-3.171215,976.00
33.50493,-3.171501,978.00
33.53957,-3.171999,980.00
33.57114,-3.172359,982.00
33.60247,-3.171385,984.00
33.63825,-3.171075,986.00
33.67058,-3.171826,988.00
33.70206,-3.172446,990.00
33.73590,-3.172196,992.00
33.76996,-3.171205,994.00
33.80159,-3.170936,996.00
33.83544,-3.170268,998.00
33.86687,-3.170288,1000.00
33.89665,-3.169949,1002.00
33.93177,-3.170633,1004.00
33.96510,-3.171289,1006.00
33.99828,-3.171620,1008.00
34.03053,-3.171569,1010.00
34.06391,-3.171504,1012.00
34.09697,-3.171351,1014.00
34.13159,-3.171164,1016.00
34.16474,-3.170971,1018.00
34.19735,-3.171061,1020.00
34.22941,-3.171056,1022.00
34.26050,-3.171019,1024.00
34.29169,-3.170540,1026.00
34.32564,-3.170443,1028.00
34.36137,-3.170501,1030.00
34.39192,-3.170808,1032.00
34.42427,-3.170906,1034.00
34.45771,-3.171045,1036.00
34.49225,-3.171627,1038.00
34.52710,-3.172596,1040.00
34.56139,-3.172450,1042.00
34.59267,-3.172236,1044.00
34.62541,-3.172124,1046.00
34.65780,-3.172036,1048.00
34.69004,-3.171589,1050.00
34.72298,-3.170536,1052.00
34.75847,-3.170111,1054.00
34.79471,-3.170382,1056.00
34.82716,-3.170048,1058.00
34.86333,-3.169921,1060.00
34.89559,-3.169820,1062.00
34.93045,-3.170305,1064.00
34.96301,-3.170735,1066.00
34.99622,-3.171066,1068.00
35.02967,-3.170834,1070.00
35.06113,-3.170912,1072.00
35.09284,-3.171284,1074.00
35.12464,-3.171792,1076.00
35.15818,-3.171889,1078.00
35.19229,-3.172161,1080.00
35.22297,-3.172162,1082.00
35.25600,-3.172581,1084.00
35.28976,-3.172242,1086.00
35.32332,-3.171615,1088.00
35.35630,-3.171168,1090.00
35.39044,-3.170988,1092.00
35.42026,-3.170858,1094.00
35.45410,-3.170957,1096.00
35.48831,-3.171422,1098.00
35.52295,-3.171316,1100.00
35.55388,-3.171658,1102.00
35.58891,-3.171873,1104.00
35.62219,-3.171824,1106.00
35.65466,-3.172270,1108.00
35.68669,-3.172383,1110.00
35.71924,-3.172028,1112.00
35.75304,-3.171704,1114.00
35.78542,-3.171222,1116.00
35.81903,-3.170655,1118.00
35.85041,-3.170814,1120.00
35.88574,-3.171243,1122.00
35.91954,-3.170648,1124.00
35.95454,-3.170726,1126.00
35.98669,-3.171692,1128.00
36.01945,-3.172119,1130.00
36.05170,-3.171745,1132.00
36.08555,-3.171992,1134.00
36.11669,-3.172285,1136.00
36.15048,-3.171931,1138.00
36.18363,-3.171790,1140.00
36.21582,-3.171609,1142.00
36.24741,-3.171260,1144.00
36.27923,-3.171339,1146.00
36.31559,-3.171280,1148.00
36.34706,-3.171504,1150.00
36.38064,-3.171928,1152.00
36.41427,-3.172448,1154.00
36.44903,-3.172655,1156.00
36.48142,-3.172995,1158.00
36.51356,-3.173271,1160.00
36.54813,-3.173207,1162.00
36.58077,-3.173262,1164.00
36.61570,-3.173298,1166.00
36.64875,-3.173135,1168.00
36.68447,-3.172319,1170.00
36.71761,-3.172406,1172.00
36.74947,-3.172880,1174.00
36.78497,-3.172801,1176.00
36.81600,-3.172878,1178.00
36.84838,-3.172737,1180.00
36.88314,-3.172802,1182.00
36.91970,-3.172696,1184.00
36.95138,-3.172481,1186.00
36.98419,-3.172135,1188.00
37.01801,-3.171940,1190.00
37.05105,-3.171803,1192.00
37.08352,-3.171727,1194.00
37.11690,-3.171721,1196.00
37.15208,-3.171932,1198.00
37.18449,-3.172384,1200.00
37.21528,-3.172549,1202.00
37.24968,-3.172565,1204.00
37.28039,-3.173195,1206.00
37.31678,-3.172722,1208.00
37.34613,-3.172267,1210.00
37.38216,-3.172400,1212.00
37.41316,-3.172668,1214.00
37.44681,-3.173455,1216.00
37.48113,-3.173848,1218.00
37.51441,-3.173981,1220.00
37.54941,-3.173710,1222.00
37.58143,-3.173297,1224.00
37.61286,-3.173278,1226.00
37.64432,-3.173286,1228.00
37.67970,-3.172673,1230.00
37.71183,-3.172183,1232.00
37.74523,-3.172255,1234.00
37.77596,-3.172061,1236.00
37.80851,-3.172271,1238.00
37.84460,-3.172834,1240.00
37.87891,-3.173226,1242.00
37.91135,-3.173926,1244.00
37.94558,-3.173976,1246.00
37.98195,-3.174477,1248.00
38.01373,-3.174487,1250.00
38.04964,-3.174131,1252.00
38.08089,-3.173961,1254.00
38.11286,-3.173982,1256.00
38.14591,-3.173345,1258.00
38.18097,-3.172830,1260.00
38.21569,-3.172826,1262.00
38.24918,-3.172920,1264.00
38.28155,-3.173202,1266.00
38.31390,-3.173596,1268.00
38.34845,-3.173440,1270.00
38.38071,-3.173856,1272.00
38.41636,-3.173687,1274.00
38.44788,-3.173972,1276.00
38.48284,-3.174252,1278.00
38.51625,-3.173890,1280.00
38.55038,-3.173256,1282.00
38.58336,-3.173550,1284.00
38.61901,-3.173146,1286.00
38.65228,-3.173043,1288.00
38.68407,-3.173589,1290.00
38.71649,-3.173736,1292.00
38.75081,-3.173604,1294.00
38.78463,-3.173896,1296.00
38.81615,-3.174524,1298.00
38.84969,-3.175061,1300.00
38.88498,-3.175062,1302.00
38.91910,-3.175279,1304.00
38.95158,-3.175416,1306.00
38.98632,-3.175302,1308.00
39.01982,-3.174811,1310.00
39.05386,-3.174916,1312.00
39.08954,-3.175141,1314.00
39.11958,-3.174944,1316.00
39.15277,-3.174887,1318.00
39.18703,-3.174347,1320.00
39.21824,-3.174593,1322.00
39.25121,-3.174683,1324.00
39.28228,-3.175223,1326.00
39.31339,-3.175254,1328.00
39.34744,-3.175390,1330.00
39.37959,-3.175868,1332.00
39.41446,-3.175337,1334.00
39.44627,-3.175226,1336.00
39.48090,-3.174576,1338.00
39.51315,-3.174776,1340.00
39.54665,-3.174929,1342.00
39.57864,-3.174186,1344.00
