$DSC2
$Conventional
$Adiabatic Mode
$Scanrate Corrected-Programmed
$Baseline Subtraction Method: 0 File: NONE
$DP Corrected
$RTD Corrected
$MidGain FB,  0.75 
$ADCGainCode:  0 
$ 10 
$NOT
$ 10 
$ 0            20            25           False
$ 0 
$ 15           80            60            5             0             2             2             0 
$ 15           80            60            5             0             2             2             0 
$ 15           80            60            5             0             2             2             0 
$ 15           80            60            5             0             2             2             0 
$ 15           80            60            5             0             2             2             0 
$ 15           80            60            5             0             2             2             0 
$ 15           80            60            5             0             2             2             0 
$ 15           80            60            5             0             2             2             0 
$ 15           80            60            5             0             2             2             0 
$ 15           80            60            5             0             2             2             0 
# 0 
# 0.5197
# 0
# 11.63 
# 0.75 
# 10.743 
? 
% VPDSC02.06.462
% 0.51971 
% 11.63 
%-0.995356 , 100.17434 
% 3.676 
% 250 ,       -22.5 
% 1000.3 , 1000.3 
% 0.88219 ,-0.02026 
%-0.08266 , 0.02515 
% 1 , 0.055 
% 0.0522 
% 1 , 130 
% 0.080433 , 0.056504 
% 0 , 8 
% 0 , 18 
% 0.072589046661 ,-0.003235099108 , 8.240903228419E-06 , 2.357972384211E-07 ,-7.440723641986E-10 
% VPViewer2000 Ver: 1.4.14
@7
17.38354,-3.162283,2.00
17.41710,-3.162071,4.00
17.45229,-3.161060,6.00
17.48555,-3.161067,8.00
17.52081,-3.161272,10.00
17.55410,-3.161468,12.00
17.58652,-3.161877,14.00
17.62258,-3.162018,16.00
17.65685,-3.161596,18.00
17.68944,-3.161468,20.00
17.72139,-3.161067,22.00
17.75536,-3.160599,24.00
17.78923,-3.160079,26.00
17.82418,-3.160191,28.00
17.85775,-3.160266,30.00
17.89032,-3.159998,32.00
17.92452,-3.159669,34.00
17.96045,-3.159518,36.00
17.99241,-3.159699,38.00
18.02494,-3.160230,40.00
18.06024,-3.160273,42.00
18.09220,-3.160808,44.00
18.12636,-3.161084,46.00
18.15916,-3.160706,48.00
18.19258,-3.160514,50.00
18.22253,-3.160515,52.00
18.25837,-3.160495,54.00
18.29163,-3.160723,56.00
18.32117,-3.161105,58.00
18.35432,-3.161135,60.00
18.38532,-3.161025,62.00
18.41865,-3.161162,64.00
18.45198,-3.161059,66.00
18.48528,-3.160434,68.00
18.51670,-3.159499,70.00
18.54899,-3.158626,72.00
18.58235,-3.158498,74.00
18.61422,-3.158003,76.00
18.64968,-3.158012,78.00
18.68436,-3.158477,80.00
18.71489,-3.158562,82.00
18.74862,-3.159520,84.00
18.77926,-3.159281,86.00
18.81283,-3.159037,88.00
18.84674,-3.158723,90.00
18.87876,-3.158637,92.00
18.91118,-3.158246,94.00
18.94533,-3.157850,96.00
18.97729,-3.157374,98.00
19.01068,-3.157065,100.00
19.04334,-3.156924,102.00
19.07977,-3.156148,104.00
19.11000,-3.155072,106.00
19.14274,-3.154879,108.00
19.17622,-3.154505,110.00
19.20890,-3.154858,112.00
19.24075,-3.154857,114.00
19.27480,-3.155077,116.00
19.30953,-3.154899,118.00
19.34125,-3.155255,120.00
19.37246,-3.155511,122.00
19.40610,-3.156261,124.00
19.43895,-3.155989,126.00
19.47285,-3.155893,128.00
19.50646,-3.155918,130.00
19.53963,-3.155423,132.00
19.57134,-3.155297,134.00
19.60713,-3.154437,136.00
19.64088,-3.154114,138.00
19.67007,-3.154171,140.00
19.69991,-3.154689,142.00
19.73671,-3.154721,144.00
19.77162,-3.154726,146.00
19.80465,-3.155330,148.00
19.83369,-3.155231,150.00
19.86778,-3.154790,152.00
19.90195,-3.154433,154.00
19.93315,-3.154678,156.00
19.96625,-3.154932,158.00
19.99659,-3.155212,160.00
20.03030,-3.155133,162.00
20.06421,-3.155084,164.00
20.09619,-3.154848,166.00
20.13145,-3.155329,168.00
20.16296,-3.155697,170.00
20.19473,-3.154824,172.00
20.22906,-3.154441,174.00
20.26322,-3.153949,176.00
20.29949,-3.153798,178.00
20.33242,-3.153690,180.00
20.36642,-3.153104,182.00
20.39702,-3.152433,184.00
20.43106,-3.151962,186.00
20.46592,-3.151688,188.00
20.49820,-3.152014,190.00
20.52931,-3.152414,192.00
20.56305,-3.153032,194.00
20.59723,-3.153437,196.00
20.62964,-3.153147,198.00
20.65962,-3.153038,200.00
20.69594,-3.153098,202.00
20.73106,-3.152960,204.00
20.76366,-3.152978,206.00
20.79562,-3.152887,208.00
20.82957,-3.152829,210.00
20.86308,-3.153188,212.00
20.89553,-3.153304,214.00
20.92719,-3.154204,216.00
20.95935,-3.153803,218.00
20.99024,-3.153247,220.00
21.02573,-3.152754,222.00
21.06092,-3.152457,224.00
21.09697,-3.151807,226.00
21.12855,-3.151596,228.00
21.15998,-3.150996,230.00
21.19309,-3.150265,232.00
21.22674,-3.149343,234.00
21.25846,-3.149342,236.00
21.29398,-3.149601,238.00
21.32544,-3.149244,240.00
21.35936,-3.149106,242.00
21.39181,-3.149384,244.00
21.42741,-3.149419,246.00
21.45898,-3.149697,248.00
21.48834,-3.150012,250.00
21.51987,-3.150099,252.00
21.55293,-3.149870,254.00
21.58621,-3.150346,256.00
21.61869,-3.150175,258.00
21.64979,-3.149994,260.00
21.68451,-3.150029,262.00
21.71682,-3.150331,264.00
21.75051,-3.150359,266.00
21.78345,-3.150387,268.00
21.81734,-3.150310,270.00
21.84998,-3.150065,272.00
21.88751,-3.149813,274.00
21.91916,-3.149419,276.00
21.95024,-3.149424,278.00
21.98304,-3.148873,280.00
22.01222,-3.148172,282.00
22.04677,-3.147898,284.00
22.08334,-3.148216,286.00
22.11648,-3.147543,288.00
22.14720,-3.147485,290.00
22.18076,-3.147765,292.00
22.21122,-3.147747,294.00
22.24351,-3.147632,296.00
22.27526,-3.148116,298.00
22.30943,-3.148375,300.00
22.34415,-3.148953,302.00
22.37579,-3.149172,304.00
22.40847,-3.149211,306.00
22.44122,-3.149477,308.00
22.47294,-3.149305,310.00
22.50360,-3.149331,312.00
22.53642,-3.149104,314.00
22.56968,-3.148530,316.00
22.60238,-3.147860,318.00
22.63370,-3.147454,320.00
22.66517,-3.147798,322.00
22.69987,-3.147992,324.00
22.73346,-3.147672,326.00
22.76634,-3.147932,328.00
22.79701,-3.148397,330.00
22.82810,-3.148846,332.00
22.86065,-3.149239,334.00
22.89335,-3.148943,336.00
22.92576,-3.148707,338.00
22.95971,-3.148830,340.00
22.99383,-3.149296,342.00
23.02808,-3.148942,344.00
23.06194,-3.148193,346.00
23.09593,-3.147993,348.00
23.12742,-3.147974,350.00
23.16169,-3.147347,352.00
23.19609,-3.147017,354.00
23.22821,-3.146700,356.00
23.26122,-3.147020,358.00
23.29536,-3.146862,360.00
23.32652,-3.146788,362.00
23.35988,-3.146769,364.00
23.39050,-3.146745,366.00
23.42296,-3.147519,368.00
23.45872,-3.147642,370.00
23.49047,-3.147971,372.00
23.52060,-3.148310,374.00
23.55635,-3.148637,376.00
23.58760,-3.149191,378.00
23.61954,-3.148510,380.00
23.65392,-3.148264,382.00
23.68645,-3.148371,384.00
23.72007,-3.147768,386.00
23.75299,-3.147388,388.00
23.78463,-3.146590,390.00
23.81692,-3.146361,392.00
23.85091,-3.146426,394.00
23.88616,-3.146417,396.00
23.91624,-3.146490,398.00
23.94822,-3.146914,400.00
23.98213,-3.147344,402.00
24.01328,-3.147310,404.00
24.04559,-3.147826,406.00
24.08147,-3.148210,408.00
24.11440,-3.148825,410.00
24.14685,-3.149019,412.00
24.17905,-3.149437,414.00
24.21211,-3.149245,416.00
24.24539,-3.149397,418.00
24.27854,-3.149611,420.00
24.31046,-3.149035,422.00
24.34175,-3.148571,424.00
24.37537,-3.148434,426.00
24.41029,-3.147621,428.00
24.44228,-3.147567,430.00
24.47887,-3.147259,432.00
24.51091,-3.147401,434.00
24.54381,-3.147564,436.00
24.57846,-3.147615,438.00
24.61088,-3.147782,440.00
24.64348,-3.148743,442.00
24.67543,-3.148964,444.00
24.70792,-3.148814,446.00
24.73999,-3.149061,448.00
24.77525,-3.149564,450.00
24.80742,-3.150186,452.00
24.84283,-3.150061,454.00
24.87764,-3.149888,456.00
24.91243,-3.150091,458.00
24.94814,-3.149560,460.00
24.98163,-3.150032,462.00
25.01600,-3.150699,464.00
25.04887,-3.150532,466.00
25.07901,-3.150847,468.00
25.11351,-3.151094,470.00
25.14868,-3.150886,472.00
25.17889,-3.151130,474.00
25.21217,-3.151152,476.00
25.24763,-3.150829,478.00
25.28089,-3.150891,480.00
25.31268,-3.150740,482.00
25.34614,-3.150675,484.00
25.37867,-3.150798,486.00
25.41018,-3.150610,488.00
25.44361,-3.150365,490.00
25.47486,-3.150839,492.00
25.50772,-3.151527,494.00
25.54181,-3.151805,496.00
25.57672,-3.152185,498.00
25.61000,-3.152805,500.00
25.64218,-3.152799,502.00
25.67337,-3.152759,504.00
25.70604,-3.153165,506.00
25.73812,-3.153109,508.00
25.77176,-3.152980,510.00
25.80484,-3.153773,512.00
25.83740,-3.155015,514.00
25.86997,-3.155853,516.00
25.90376,-3.156832,518.00
25.93594,-3.157795,520.00
25.96799,-3.158589,522.00
25.99895,-3.159336,524.00
26.03278,-3.160035,526.00
26.06554,-3.160844,528.00
26.09928,-3.161829,530.00
26.13194,-3.162666,532.00
26.16364,-3.163533,534.00
26.19621,-3.164534,536.00
26.22984,-3.165325,538.00
26.26223,-3.166142,540.00
26.29491,-3.166517,542.00
26.32675,-3.166865,544.00
26.36018,-3.167248,546.00
26.39487,-3.167916,548.00
26.42752,-3.168677,550.00
26.46209,-3.169403,552.00
26.49514,-3.170140,554.00
26.52904,-3.171745,556.00
26.56062,-3.172704,558.00
26.59520,-3.174177,560.00
26.62658,-3.175574,562.00
26.65963,-3.177503,564.00
26.69393,-3.179263,566.00
26.72645,-3.180881,568.00
26.75797,-3.182863,570.00
26.79144,-3.184708,572.00
26.82378,-3.186995,574.00
26.85654,-3.189461,576.00
26.88937,-3.192609,578.00
26.92046,-3.195656,580.00
26.95430,-3.199428,582.00
26.98844,-3.203005,584.00
27.02212,-3.206502,586.00
27.05803,-3.210817,588.00
27.09006,-3.215752,590.00
27.12205,-3.220798,592.00
27.15463,-3.226188,594.00
27.18899,-3.231652,596.00
27.22431,-3.237944,598.00
27.25523,-3.245753,600.00
27.28823,-3.253518,602.00
27.32039,-3.262504,604.00
27.35251,-3.272557,606.00
27.38425,-3.284341,608.00
27.41687,-3.297571,610.00
27.45120,-3.313026,612.00
27.48429,-3.331357,614.00
27.51510,-3.352573,616.00
27.54667,-3.377893,618.00
27.58080,-3.408872,620.00
27.61528,-3.446728,622.00
27.64677,-3.493177,624.00
27.68174,-3.550317,626.00
27.71491,-3.622123,628.00
27.74889,-3.713532,630.00
27.78292,-3.833670,632.00
27.81334,-3.991750,634.00
27.84515,-4.200005,636.00
27.87780,-4.465254,638.00
27.91312,-4.768529,640.00
27.94818,-5.098088,642.00
27.98141,-5.472746,644.00
28.01423,-5.883154,646.00
28.04806,-6.329700,648.00
28.07993,-6.819542,650.00
28.11350,-7.284901,652.00
28.14711,-7.557701,654.00
28.18234,-7.471666,656.00
28.21350,-7.062766,658.00
28.24664,-6.506330,660.00
28.28214,-5.958539,662.00
28.31423,-5.475166,664.00
28.34436,-5.064201,666.00
28.37807,-4.721357,668.00
28.41319,-4.437877,670.00
28.44570,-4.203553,672.00
28.47914,-4.010310,674.00
28.51237,-3.851362,676.00
28.54409,-3.721105,678.00
28.57906,-3.615004,680.00
28.61110,-3.527094,682.00
28.64311,-3.454771,684.00
28.67780,-3.395511,686.00
28.71013,-3.346764,688.00
28.74168,-3.307322,690.00
28.77549,-3.274887,692.00
28.81001,-3.247774,694.00
28.84304,-3.226272,696.00
28.87511,-3.208834,698.00
28.90766,-3.194361,700.00
28.94116,-3.183022,702.00
28.97310,-3.173937,704.00
29.00589,-3.165999,706.00
29.03961,-3.159344,708.00
29.07458,-3.153841,710.00
29.10902,-3.150139,712.00
29.14256,-3.147082,714.00
29.17397,-3.144572,716.00
29.20603,-3.143700,718.00
29.23894,-3.143625,720.00
29.27224,-3.143184,722.00
29.30492,-3.143519,724.00
29.33719,-3.144920,726.00
29.37060,-3.146597,728.00
29.40308,-3.147228,730.00
29.43930,-3.146878,732.00
29.47083,-3.145486,734.00
29.50165,-3.143221,736.00
29.53528,-3.140971,738.00
29.56770,-3.138960,740.00
29.60245,-3.136671,742.00
29.63555,-3.135319,744.00
29.66695,-3.133780,746.00
29.69754,-3.132331,748.00
29.73193,-3.131123,750.00
29.76394,-3.129944,752.00
29.79608,-3.128824,754.00
29.82975,-3.128309,756.00
29.86355,-3.127752,758.00
29.89600,-3.127937,760.00
29.93176,-3.127576,762.00
29.96046,-3.127473,764.00
29.99019,-3.127040,766.00
30.02420,-3.126593,768.00
30.05885,-3.126237,770.00
30.09036,-3.126245,772.00
30.12064,-3.125689,774.00
30.15433,-3.125475,776.00
30.19044,-3.125032,778.00
30.22226,-3.125214,780.00
30.25303,-3.124826,782.00
30.28710,-3.124877,784.00
30.31951,-3.125312,786.00
30.35313,-3.125684,788.00
30.38893,-3.125191,790.00
30.41903,-3.125534,792.00
30.45103,-3.125553,794.00
30.48489,-3.125953,796.00
30.51821,-3.125903,798.00
30.55326,-3.125581,800.00
30.58952,-3.125805,802.00
30.62319,-3.125589,804.00
30.65645,-3.125204,806.00
30.68777,-3.125597,808.00
30.72002,-3.125727,810.00
30.75367,-3.125863,812.00
30.78520,-3.125700,814.00
30.81926,-3.125814,816.00
30.85308,-3.126320,818.00
30.88697,-3.126156,820.00
30.91976,-3.125654,822.00
30.95377,-3.125217,824.00
30.99192,-3.124430,826.00
31.02489,-3.123572,828.00
31.05782,-3.123569,830.00
31.08862,-3.123984,832.00
31.12218,-3.123798,834.00
31.15814,-3.123363,836.00
31.18860,-3.123408,838.00
31.22298,-3.122831,840.00
31.25569,-3.123230,842.00
31.28771,-3.123356,844.00
31.32148,-3.123557,846.00
31.35557,-3.124088,848.00
31.38626,-3.124372,850.00
31.41856,-3.124927,852.00
31.45220,-3.125376,854.00
31.48491,-3.125543,856.00
31.52027,-3.125351,858.00
31.55517,-3.125042,860.00
31.58599,-3.125566,862.00
31.62027,-3.125520,864.00
31.65409,-3.125731,866.00
31.68802,-3.125656,868.00
31.72062,-3.125227,870.00
31.75341,-3.125400,872.00
31.78773,-3.125549,874.00
31.81925,-3.125597,876.00
31.85153,-3.125126,878.00
31.88648,-3.125003,880.00
31.91859,-3.124704,882.00
31.95372,-3.124353,884.00
31.98785,-3.124046,886.00
32.02032,-3.123806,888.00
32.05489,-3.123447,890.00
32.08778,-3.123356,892.00
32.12016,-3.123338,894.00
32.15227,-3.123571,896.00
32.18644,-3.122706,898.00
32.22174,-3.122374,900.00
32.25620,-3.122407,902.00
32.28791,-3.122644,904.00
32.32221,-3.122637,906.00
32.35734,-3.122841,908.00
32.38914,-3.122864,910.00
32.42422,-3.122877,912.00
32.45682,-3.123499,914.00
32.48850,-3.123956,916.00
32.52040,-3.123317,918.00
32.55462,-3.123849,920.00
32.58928,-3.124523,922.00
32.61969,-3.124660,924.00
32.65624,-3.124124,926.00
32.68601,-3.124474,928.00
32.71943,-3.124009,930.00
32.75320,-3.124128,932.00
32.78638,-3.123838,934.00
32.81841,-3.123029,936.00
32.85145,-3.122506,938.00
32.88417,-3.122469,940.00
32.91776,-3.122642,942.00
32.95221,-3.122055,944.00
32.98354,-3.121796,946.00
33.01843,-3.121563,948.00
33.05063,-3.120948,950.00
33.08293,-3.120908,952.00
33.11512,-3.121144,954.00
33.15124,-3.121033,956.00
33.18263,-3.120743,958.00
33.21420,-3.120359,960.00
33.24999,-3.120234,962.00
33.28255,-3.120731,964.00
33.31593,-3.120838,966.00
33.34905,-3.121577,968.00
33.38106,-3.121548,970.00
33.41319,-3.121197,972.00
33.44609,-3.120643,974.00
33.48097,-3.120653,976.00
33.51537,-3.120864,978.00
33.54774,-3.121378,980.00
33.58073,-3.120740,982.00
33.61356,-3.120742,984.00
33.64392,-3.121515,986.00
33.67670,-3.122119,988.00
33.71373,-3.122578,990.00
33.74779,-3.122520,992.00
33.78135,-3.122567,994.00
33.81190,-3.123156,996.00
33.84389,-3.123394,998.00
33.87365,-3.123319,1000.00
33.90490,-3.123417,1002.00
33.93991,-3.123766,1004.00
33.97069,-3.123973,1006.00
34.00462,-3.123697,1008.00
34.03575,-3.123296,1010.00
34.06814,-3.123201,1012.00
34.10227,-3.123148,1014.00
34.13630,-3.123462,1016.00
34.16817,-3.123031,1018.00
34.20202,-3.123220,1020.00
34.23591,-3.123033,1022.00
34.26994,-3.122886,1024.00
34.30248,-3.122750,1026.00
34.33629,-3.122347,1028.00
34.37103,-3.121927,1030.00
34.40277,-3.121530,1032.00
34.43682,-3.121564,1034.00
34.47061,-3.121086,1036.00
34.50598,-3.121065,1038.00
34.53857,-3.120906,1040.00
34.57321,-3.120694,1042.00
34.60848,-3.120783,1044.00
34.64028,-3.120870,1046.00
34.67554,-3.121332,1048.00
34.70693,-3.121618,1050.00
34.74055,-3.120980,1052.00
34.77165,-3.120817,1054.00
34.80533,-3.121176,1056.00
34.83954,-3.121102,1058.00
34.87377,-3.120155,1060.00
34.90714,-3.120092,1062.00
34.94036,-3.120222,1064.00
34.97319,-3.120603,1066.00
35.00598,-3.120583,1068.00
35.04085,-3.120652,1070.00
35.07354,-3.120859,1072.00
35.10637,-3.121274,1074.00
35.13979,-3.122173,1076.00
35.16956,-3.122865,1078.00
35.20253,-3.123446,1080.00
35.23731,-3.123718,1082.00
35.27211,-3.123156,1084.00
35.30447,-3.123038,1086.00
35.33831,-3.122788,1088.00
35.36965,-3.122366,1090.00
35.40300,-3.122102,1092.00
35.43664,-3.122380,1094.00
35.47129,-3.122167,1096.00
35.50419,-3.122219,1098.00
35.53650,-3.122280,1100.00
35.56937,-3.122159,1102.00
35.60437,-3.122209,1104.00
35.63823,-3.122918,1106.00
35.67457,-3.122949,1108.00
35.70804,-3.123307,1110.00
35.74142,-3.123358,1112.00
35.77427,-3.123262,1114.00
35.80923,-3.123173,1116.00
35.84217,-3.123083,1118.00
35.87531,-3.122573,1120.00
35.90640,-3.122318,1122.00
35.94013,-3.122277,1124.00
35.97191,-3.121957,1126.00
36.00827,-3.122220,1128.00
36.04169,-3.122247,1130.00
36.07463,-3.121919,1132.00
36.10651,-3.121295,1134.00
36.13940,-3.121112,1136.00
36.17411,-3.121003,1138.00
36.20597,-3.120558,1140.00
36.23978,-3.119817,1142.00
36.27239,-3.120558,1144.00
36.30274,-3.121299,1146.00
36.33450,-3.121848,1148.00
36.37113,-3.122247,1150.00
36.40737,-3.122419,1152.00
36.43880,-3.122960,1154.00
36.47244,-3.123034,1156.00
36.50488,-3.123328,1158.00
36.53861,-3.123836,1160.00
36.57434,-3.123565,1162.00
36.60807,-3.123702,1164.00
36.64161,-3.123463,1166.00
36.67288,-3.123206,1168.00
36.70330,-3.122933,1170.00
36.73440,-3.123216,1172.00
36.76771,-3.122827,1174.00
36.80292,-3.122132,1176.00
36.83577,-3.121431,1178.00
36.86568,-3.121072,1180.00
36.89741,-3.121308,1182.00
36.93305,-3.121076,1184.00
36.96596,-3.121295,1186.00
36.99938,-3.121203,1188.00
37.03462,-3.121565,1190.00
37.06770,-3.121145,1192.00
37.10322,-3.120459,1194.00
37.13520,-3.120191,1196.00
37.16757,-3.120391,1198.00
37.19971,-3.120648,1200.00
37.23123,-3.120463,1202.00
37.26473,-3.120312,1204.00
37.29794,-3.120275,1206.00
37.32862,-3.120303,1208.00
37.36516,-3.120967,1210.00
37.40051,-3.121331,1212.00
37.43281,-3.121874,1214.00
37.46788,-3.122568,1216.00
37.50085,-3.123261,1218.00
37.53527,-3.123678,1220.00
37.56824,-3.123610,1222.00
37.60201,-3.123868,1224.00
37.63546,-3.123731,1226.00
37.66801,-3.123940,1228.00
37.69921,-3.123605,1230.00
37.73153,-3.124369,1232.00
37.76326,-3.124139,1234.00
37.79497,-3.123607,1236.00
37.82828,-3.123457,1238.00
37.85994,-3.124155,1240.00
37.89400,-3.124010,1242.00
37.92522,-3.124089,1244.00
37.95973,-3.123635,1246.00
37.99333,-3.123384,1248.00
38.02273,-3.123560,1250.00
38.05635,-3.123074,1252.00
38.09325,-3.123246,1254.00
38.12570,-3.122962,1256.00
38.15900,-3.122939,1258.00
38.19453,-3.122868,1260.00
38.22814,-3.122895,1262.00
38.26071,-3.122749,1264.00
38.29394,-3.122265,1266.00
38.32597,-3.121849,1268.00
38.35726,-3.121946,1270.00
38.38876,-3.122102,1272.00
38.42309,-3.121687,1274.00
38.45535,-3.121767,1276.00
38.48770,-3.122089,1278.00
38.52284,-3.122740,1280.00
38.55850,-3.123029,1282.00
38.59061,-3.123250,1284.00
38.62456,-3.123554,1286.00
38.65719,-3.123765,1288.00
38.69105,-3.123849,1290.00
38.72160,-3.124150,1292.00
38.75469,-3.124317,1294.00
38.78904,-3.124835,1296.00
38.82155,-3.125222,1298.00
38.85810,-3.125767,1300.00
38.89087,-3.125766,1302.00
38.92240,-3.125787,1304.00
38.95313,-3.125605,1306.00
38.98810,-3.125630,1308.00
39.02217,-3.125872,1310.00
39.05541,-3.126163,1312.00
39.08751,-3.126154,1314.00
39.12051,-3.126768,1316.00
39.15402,-3.126775,1318.00
39.18627,-3.126443,1320.00
39.22079,-3.126147,1322.00
39.25522,-3.126132,1324.00
39.28851,-3.125986,1326.00
39.31736,-3.125765,1328.00
39.35246,-3.125619,1330.00
39.38537,-3.125454,1332.00
39.41843,-3.124845,1334.00
39.45019,-3.124598,1336.00
39.48290,-3.124520,1338.00
39.51632,-3.124516,1340.00
39.55243,-3.124838,1342.00
39.58510,-3.124296,1344.00
