$DSC2
$Conventional
$Adiabatic Mode
$Scanrate Corrected-Programmed
$Baseline Subtraction Method: 0 File: NONE
$DP Corrected
$RTD Corrected
$MidGain FB,  0.75 
$ADCGainCode:  0 
$ 10 
$NOT
$ 10 
$ 0            20            25           False
$ 0 
$ 15           80            60            5             0             2             2             0 
$ 15           80            60            5             0             2             2             0 
$ 15           80            60            5             0             2             2             0 
$ 15           80            60            5             0             2             2             0 
$ 15           80            60            5             0             2             2             0 
$ 15           80            60            5             0             2             2             0 
$ 15           80            60            5             0             2             2             0 
$ 15           80            60            5             0             2             2             0 
$ 15           80            60            5             0             2             2             0 
$ 15           80            60            5             0             2             2             0 
# 0 
# 0.5197
# 0
# 11.63 
# 0.75 
# 10.743 
? 
% VPDSC02.06.462
% 0.51971 
% 11.63 
%-0.995356 , 100.17434 
% 3.676 
% 250 ,       -22.5 
% 1000.3 , 1000.3 
% 0.88219 ,-0.02026 
%-0.08266 , 0.02515 
% 1 , 0.055 
% 0.0522 
% 1 , 130 
% 0.080433 , 0.056504 
% 0 , 8 
% 0 , 18 
% 0.072589046661 ,-0.003235099108 , 8.240903228419E-06 , 2.357972384211E-07 ,-7.440723641986E-10 
% VPViewer2000 Ver: 1.4.14
@5
17.38500,-3.077052,2.00
17.41673,-3.077001,4.00
17.45194,-3.076111,6.00
17.48339,-3.075678,8.00
17.51704,-3.075877,10.00
17.55024,-3.075302,12.00
17.58393,-3.075100,14.00
17.61779,-3.075346,16.00
17.65075,-3.075170,18.00
17.68352,-3.075055,20.00
17.71660,-3.074905,22.00
17.74960,-3.074625,24.00
17.78292,-3.074095,26.00
17.81691,-3.073631,28.00
17.84794,-3.073258,30.00
17.88060,-3.072872,32.00
17.91531,-3.072715,34.00
17.94877,-3.072473,36.00
17.98138,-3.071990,38.00
18.01548,-3.072096,40.00
18.04756,-3.072494,42.00
18.07773,-3.072399,44.00
18.11192,-3.073304,46.00
18.14694,-3.073660,48.00
18.17852,-3.073160,50.00
18.21337,-3.073247,52.00
18.24696,-3.073530,54.00
18.27911,-3.073662,56.00
18.31059,-3.073447,58.00
18.34070,-3.073018,60.00
18.37398,-3.072846,62.00
18.40828,-3.073133,64.00
18.44157,-3.072803,66.00
18.47545,-3.072473,68.00
18.50849,-3.071431,70.00
18.54284,-3.071016,72.00
18.57480,-3.070351,74.00
18.61068,-3.069986,76.00
18.64283,-3.069576,78.00
18.67619,-3.069044,80.00
18.70957,-3.069914,82.00
18.74183,-3.070133,84.00
18.77611,-3.069703,86.00
18.81004,-3.069315,88.00
18.84441,-3.068832,90.00
18.87815,-3.068589,92.00
18.91139,-3.068873,94.00
18.94191,-3.068820,96.00
18.97820,-3.068526,98.00
19.01045,-3.068664,100.00
19.04434,-3.068942,102.00
19.07714,-3.068020,104.00
19.11214,-3.067598,106.00
19.14479,-3.067508,108.00
19.17648,-3.066802,110.00
19.21108,-3.067226,112.00
19.24463,-3.066655,114.00
19.27884,-3.066695,116.00
19.31292,-3.066352,118.00
19.34510,-3.066338,120.00
19.38044,-3.066353,122.00
19.41580,-3.066143,124.00
19.44746,-3.066319,126.00
19.48177,-3.066610,128.00
19.51473,-3.066838,130.00
19.54775,-3.067239,132.00
19.58013,-3.067271,134.00
19.61359,-3.067442,136.00
19.64839,-3.067718,138.00
19.67949,-3.067787,140.00
19.71663,-3.067802,142.00
19.74993,-3.068090,144.00
19.78207,-3.067993,146.00
19.81484,-3.068263,148.00
19.84768,-3.067916,150.00
19.88170,-3.067773,152.00
19.91706,-3.067646,154.00
19.95115,-3.067613,156.00
19.98514,-3.067472,158.00
20.01573,-3.067324,160.00
20.05180,-3.067586,162.00
20.08309,-3.067525,164.00
20.11394,-3.067743,166.00
20.15029,-3.067669,168.00
20.18204,-3.067924,170.00
20.21642,-3.067600,172.00
20.25067,-3.067348,174.00
20.28206,-3.067796,176.00
20.31432,-3.067591,178.00
20.34816,-3.067911,180.00
20.38058,-3.067513,182.00
20.41461,-3.067251,184.00
20.44811,-3.066908,186.00
20.47923,-3.067657,188.00
20.51278,-3.067234,190.00
20.54793,-3.066689,192.00
20.58057,-3.066301,194.00
20.61562,-3.065615,196.00
20.64544,-3.065883,198.00
20.67880,-3.065925,200.00
20.71083,-3.065244,202.00
20.74523,-3.064722,204.00
20.77859,-3.064460,206.00
20.81058,-3.064310,208.00
20.84413,-3.064191,210.00
20.87806,-3.064068,212.00
20.91365,-3.063895,214.00
20.94612,-3.063679,216.00
20.97719,-3.063346,218.00
21.01289,-3.062624,220.00
21.04452,-3.062306,222.00
21.07744,-3.062442,224.00
21.10928,-3.062611,226.00
21.14023,-3.062623,228.00
21.17227,-3.062782,230.00
21.20767,-3.062847,232.00
21.24486,-3.062858,234.00
21.27655,-3.063646,236.00
21.30977,-3.062979,238.00
21.34318,-3.062787,240.00
21.37537,-3.062636,242.00
21.40849,-3.062402,244.00
21.44141,-3.062503,246.00
21.47340,-3.062531,248.00
21.50673,-3.062210,250.00
21.54294,-3.062478,252.00
21.57612,-3.062382,254.00
21.61021,-3.062365,256.00
21.64015,-3.062803,258.00
21.67167,-3.062477,260.00
21.70413,-3.062268,262.00
21.73747,-3.062136,264.00
21.77182,-3.061760,266.00
21.80307,-3.061171,268.00
21.83678,-3.060860,270.00
21.87046,-3.060647,272.00
21.90503,-3.060827,274.00
21.93775,-3.060275,276.00
21.96942,-3.059921,278.00
22.00300,-3.059911,280.00
22.03674,-3.059907,282.00
22.06772,-3.060181,284.00
22.09969,-3.060760,286.00
22.13336,-3.060764,288.00
22.16634,-3.060343,290.00
22.19829,-3.060123,292.00
22.22927,-3.060313,294.00
22.26123,-3.061033,296.00
22.29728,-3.061176,298.00
22.32916,-3.061503,300.00
22.36483,-3.061264,302.00
22.39882,-3.062108,304.00
22.43236,-3.062474,306.00
22.46399,-3.062341,308.00
22.49606,-3.062521,310.00
22.52866,-3.062785,312.00
22.56221,-3.062849,314.00
22.59432,-3.062745,316.00
22.62660,-3.062849,318.00
22.65889,-3.062253,320.00
22.69375,-3.062062,322.00
22.72426,-3.062113,324.00
22.75853,-3.062172,326.00
22.79366,-3.061923,328.00
22.82625,-3.061344,330.00
22.85868,-3.060916,332.00
22.89254,-3.061074,334.00
22.92472,-3.061161,336.00
22.95904,-3.060994,338.00
22.99314,-3.060345,340.00
23.02522,-3.059623,342.00
23.05861,-3.059753,344.00
23.09179,-3.060034,346.00
23.12687,-3.060187,348.00
23.15809,-3.060440,350.00
23.19185,-3.060383,352.00
23.22486,-3.060197,354.00
23.25591,-3.060403,356.00
23.28802,-3.060489,358.00
23.32149,-3.060303,360.00
23.35298,-3.060421,362.00
23.38634,-3.060456,364.00
23.41949,-3.060430,366.00
23.45248,-3.061312,368.00
23.48610,-3.060824,370.00
23.51929,-3.060603,372.00
23.55246,-3.060569,374.00
23.58486,-3.060653,376.00
23.61755,-3.060794,378.00
23.64792,-3.060715,380.00
23.67919,-3.060569,382.00
23.71424,-3.060473,384.00
23.74753,-3.060284,386.00
23.78075,-3.060527,388.00
23.81354,-3.060797,390.00
23.84596,-3.060614,392.00
23.87712,-3.060116,394.00
23.91171,-3.060549,396.00
23.94494,-3.060315,398.00
23.97693,-3.060081,400.00
24.01225,-3.059773,402.00
24.04702,-3.060082,404.00
24.08200,-3.059951,406.00
24.11399,-3.060247,408.00
24.14573,-3.060705,410.00
24.18029,-3.060691,412.00
24.21610,-3.060902,414.00
24.24749,-3.061052,416.00
24.27930,-3.061651,418.00
24.31065,-3.061467,420.00
24.34486,-3.061661,422.00
24.37602,-3.061744,424.00
24.40882,-3.061694,426.00
24.44170,-3.061979,428.00
24.47549,-3.061925,430.00
24.50883,-3.061916,432.00
24.54220,-3.061616,434.00
24.57593,-3.061795,436.00
24.60710,-3.062483,438.00
24.64219,-3.062257,440.00
24.67527,-3.061973,442.00
24.70973,-3.061728,444.00
24.74139,-3.061569,446.00
24.77409,-3.061563,448.00
24.80686,-3.061729,450.00
24.84118,-3.062048,452.00
24.87288,-3.061647,454.00
24.90499,-3.061301,456.00
24.93761,-3.061328,458.00
24.97029,-3.062015,460.00
25.00569,-3.061762,462.00
25.03865,-3.062055,464.00
25.07079,-3.062255,466.00
25.10137,-3.062252,468.00
25.13584,-3.061882,470.00
25.17010,-3.061524,472.00
25.20282,-3.061595,474.00
25.23443,-3.061632,476.00
25.26574,-3.061591,478.00
25.30153,-3.062375,480.00
25.33488,-3.061942,482.00
25.36725,-3.062180,484.00
25.39958,-3.062560,486.00
25.43289,-3.063489,488.00
25.46636,-3.064142,490.00
25.50047,-3.064789,492.00
25.53187,-3.064827,494.00
25.56272,-3.065741,496.00
25.59595,-3.065758,498.00
25.62990,-3.066061,500.00
25.66294,-3.066432,502.00
25.69589,-3.066574,504.00
25.72695,-3.067497,506.00
25.75795,-3.067932,508.00
25.79354,-3.068616,510.00
25.82649,-3.069352,512.00
25.86178,-3.070153,514.00
25.89218,-3.070420,516.00
25.92679,-3.071422,518.00
25.96108,-3.071744,520.00
25.99288,-3.072939,522.00
26.02534,-3.073224,524.00
26.05817,-3.074354,526.00
26.09013,-3.074957,528.00
26.12033,-3.075817,530.00
26.15371,-3.076711,532.00
26.18901,-3.077749,534.00
26.22346,-3.077974,536.00
26.25527,-3.078882,538.00
26.28734,-3.080011,540.00
26.32135,-3.080771,542.00
26.35438,-3.082183,544.00
26.38836,-3.083417,546.00
26.41934,-3.084439,548.00
26.45247,-3.085964,550.00
26.48514,-3.087487,552.00
26.51799,-3.088599,554.00
26.55202,-3.090151,556.00
26.58772,-3.091665,558.00
26.61821,-3.093220,560.00
26.64909,-3.094941,562.00
26.68189,-3.096909,564.00
26.71467,-3.098994,566.00
26.74732,-3.101174,568.00
26.77971,-3.103087,570.00
26.81197,-3.105349,572.00
26.84840,-3.107374,574.00
26.87919,-3.109673,576.00
26.91609,-3.113011,578.00
26.94742,-3.116268,580.00
26.98185,-3.119650,582.00
27.01545,-3.123411,584.00
27.04803,-3.127264,586.00
27.08112,-3.131751,588.00
27.11585,-3.137292,590.00
27.14920,-3.143024,592.00
27.18238,-3.149271,594.00
27.21511,-3.155891,596.00
27.24977,-3.164001,598.00
27.28129,-3.172367,600.00
27.31217,-3.181879,602.00
27.34402,-3.193386,604.00
27.37790,-3.205772,606.00
27.41016,-3.220413,608.00
27.44224,-3.237614,610.00
27.47434,-3.256748,612.00
27.50584,-3.279368,614.00
27.53945,-3.305996,616.00
27.57259,-3.336662,618.00
27.61010,-3.373747,620.00
27.64681,-3.419208,622.00
27.68008,-3.475392,624.00
27.70991,-3.544662,626.00
27.74172,-3.633223,628.00
27.77798,-3.746651,630.00
27.81129,-3.896686,632.00
27.84504,-4.094758,634.00
27.87799,-4.355798,636.00
27.91101,-4.680832,638.00
27.94413,-5.041987,640.00
27.97831,-5.442414,642.00
28.00981,-5.903267,644.00
28.04362,-6.418409,646.00
28.08083,-7.012614,648.00
28.11352,-7.663727,650.00
28.14449,-8.181510,652.00
28.17896,-8.318646,654.00
28.21382,-8.025050,656.00
28.24444,-7.428739,658.00
28.27679,-6.754865,660.00
28.31124,-6.132929,662.00
28.34337,-5.596034,664.00
28.37684,-5.144699,666.00
28.40987,-4.769972,668.00
28.44509,-4.460318,670.00
28.47634,-4.205093,672.00
28.50809,-3.995786,674.00
28.54326,-3.823723,676.00
28.57668,-3.682256,678.00
28.60902,-3.566945,680.00
28.63994,-3.471830,682.00
28.67223,-3.393228,684.00
28.70732,-3.328993,686.00
28.73907,-3.276819,688.00
28.77307,-3.233856,690.00
28.80607,-3.198898,692.00
28.83588,-3.169911,694.00
28.87036,-3.146519,696.00
28.90437,-3.127440,698.00
28.93628,-3.111503,700.00
28.97134,-3.098048,702.00
29.00551,-3.087518,704.00
29.03510,-3.079450,706.00
29.06903,-3.072482,708.00
29.10397,-3.066501,710.00
29.13975,-3.062353,712.00
29.17528,-3.059317,714.00
29.20643,-3.056829,716.00
29.23960,-3.056857,718.00
29.27308,-3.057234,720.00
29.30581,-3.057462,722.00
29.33898,-3.058093,724.00
29.37168,-3.058849,726.00
29.40542,-3.058585,728.00
29.43757,-3.057378,730.00
29.46942,-3.055724,732.00
29.50508,-3.053196,734.00
29.53899,-3.050994,736.00
29.57247,-3.048950,738.00
29.60466,-3.047004,740.00
29.63507,-3.045256,742.00
29.66878,-3.043764,744.00
29.69947,-3.042741,746.00
29.73305,-3.041842,748.00
29.76404,-3.041143,750.00
29.79865,-3.040831,752.00
29.83160,-3.040405,754.00
29.86414,-3.040181,756.00
29.89849,-3.040124,758.00
29.93174,-3.039575,760.00
29.96131,-3.039080,762.00
29.98847,-3.038203,764.00
30.02095,-3.037766,766.00
30.05634,-3.037903,768.00
30.08804,-3.038290,770.00
30.11994,-3.038762,772.00
30.15385,-3.038799,774.00
30.18374,-3.038571,776.00
30.21633,-3.037886,778.00
30.24997,-3.037491,780.00
30.28188,-3.037332,782.00
30.31543,-3.037283,784.00
30.35053,-3.037115,786.00
30.38280,-3.037199,788.00
30.41613,-3.037668,790.00
30.44991,-3.037594,792.00
30.48308,-3.037581,794.00
30.51640,-3.037719,796.00
30.54849,-3.037408,798.00
30.58030,-3.037508,800.00
30.61209,-3.037910,802.00
30.64526,-3.038064,804.00
30.68032,-3.038306,806.00
30.71364,-3.038565,808.00
30.74661,-3.038541,810.00
30.78000,-3.039132,812.00
30.81173,-3.038786,814.00
30.84537,-3.038860,816.00
30.88093,-3.038796,818.00
30.91387,-3.038881,820.00
30.94675,-3.038602,822.00
30.97865,-3.038851,824.00
31.01184,-3.038669,826.00
31.04584,-3.038625,828.00
31.07908,-3.038719,830.00
31.11471,-3.038755,832.00
31.14672,-3.038650,834.00
31.18078,-3.038714,836.00
31.21572,-3.038519,838.00
31.24915,-3.038750,840.00
31.28243,-3.038759,842.00
31.31716,-3.037933,844.00
31.35263,-3.037919,846.00
31.38469,-3.037569,848.00
31.41755,-3.036868,850.00
31.45264,-3.036163,852.00
31.48485,-3.036334,854.00
31.51799,-3.035604,856.00
31.55341,-3.034849,858.00
31.58746,-3.034564,860.00
31.61904,-3.034351,862.00
31.65056,-3.033940,864.00
31.68507,-3.033941,866.00
31.71764,-3.034147,868.00
31.75191,-3.033895,870.00
31.78664,-3.033681,872.00
31.81874,-3.034170,874.00
31.85103,-3.034586,876.00
31.88532,-3.034945,878.00
31.91746,-3.035143,880.00
31.95272,-3.035396,882.00
31.98609,-3.035530,884.00
32.01791,-3.035972,886.00
32.05040,-3.036053,888.00
32.08202,-3.035925,890.00
32.11660,-3.035324,892.00
32.15040,-3.035159,894.00
32.18382,-3.034580,896.00
32.21817,-3.034237,898.00
32.25034,-3.033454,900.00
32.28301,-3.034036,902.00
32.31647,-3.033363,904.00
32.34997,-3.033172,906.00
32.38086,-3.033715,908.00
32.41691,-3.034829,910.00
32.44943,-3.034449,912.00
32.48344,-3.034767,914.00
32.51761,-3.034293,916.00
32.54889,-3.034015,918.00
32.58325,-3.034207,920.00
32.61685,-3.034433,922.00
32.65022,-3.035002,924.00
32.68359,-3.034900,926.00
32.71662,-3.035058,928.00
32.75228,-3.035543,930.00
32.78534,-3.034935,932.00
32.81556,-3.034686,934.00
32.85141,-3.035023,936.00
32.88424,-3.034938,938.00
32.91773,-3.035477,940.00
32.95064,-3.035149,942.00
32.98485,-3.034720,944.00
33.02055,-3.034442,946.00
33.05232,-3.034431,948.00
33.08379,-3.034083,950.00
33.11605,-3.033879,952.00
33.15102,-3.033475,954.00
33.18226,-3.033408,956.00
33.21476,-3.033383,958.00
33.24944,-3.033544,960.00
33.28180,-3.033231,962.00
33.31334,-3.033251,964.00
33.34643,-3.033369,966.00
33.38104,-3.033473,968.00
33.41264,-3.033653,970.00
33.44542,-3.033873,972.00
33.48148,-3.034267,974.00
33.51487,-3.034540,976.00
33.54736,-3.034187,978.00
33.57922,-3.034169,980.00
33.61041,-3.033277,982.00
33.64562,-3.033197,984.00
33.67859,-3.033081,986.00
33.71027,-3.033568,988.00
33.74332,-3.033396,990.00
33.77976,-3.033037,992.00
33.81070,-3.032676,994.00
33.84480,-3.031982,996.00
33.87490,-3.031365,998.00
33.90838,-3.031030,1000.00
33.94135,-3.030888,1002.00
33.97464,-3.031088,1004.00
34.00892,-3.030994,1006.00
34.04058,-3.031030,1008.00
34.07491,-3.031150,1010.00
34.10864,-3.030854,1012.00
34.14145,-3.031376,1014.00
34.17449,-3.030641,1016.00
34.20751,-3.030613,1018.00
34.23983,-3.030801,1020.00
34.27330,-3.031424,1022.00
34.30620,-3.031304,1024.00
34.33929,-3.031121,1026.00
34.37251,-3.031652,1028.00
34.40735,-3.031953,1030.00
34.43764,-3.031797,1032.00
34.47059,-3.031532,1034.00
34.50280,-3.031854,1036.00
34.53581,-3.031787,1038.00
34.56818,-3.032022,1040.00
34.60243,-3.031735,1042.00
34.63614,-3.031550,1044.00
34.67038,-3.031047,1046.00
34.70444,-3.031029,1048.00
34.73429,-3.030633,1050.00
34.76666,-3.031481,1052.00
34.80120,-3.031420,1054.00
34.83470,-3.030815,1056.00
34.86784,-3.030440,1058.00
34.90009,-3.030070,1060.00
34.93433,-3.030438,1062.00
34.97029,-3.031101,1064.00
35.00116,-3.031710,1066.00
35.03685,-3.032325,1068.00
35.06856,-3.032396,1070.00
35.10109,-3.032539,1072.00
35.13604,-3.032622,1074.00
35.16926,-3.032575,1076.00
35.20216,-3.033022,1078.00
35.23499,-3.033142,1080.00
35.26906,-3.032807,1082.00
35.30060,-3.032878,1084.00
35.33285,-3.033250,1086.00
35.36488,-3.033101,1088.00
35.40109,-3.033039,1090.00
35.43370,-3.032914,1092.00
35.46675,-3.033499,1094.00
35.49989,-3.033143,1096.00
35.53339,-3.032646,1098.00
35.56580,-3.032589,1100.00
35.60066,-3.032703,1102.00
35.63209,-3.032716,1104.00
35.66624,-3.033241,1106.00
35.70159,-3.033177,1108.00
35.73478,-3.033284,1110.00
35.76837,-3.032992,1112.00
35.80256,-3.031961,1114.00
35.83468,-3.031589,1116.00
35.86939,-3.031580,1118.00
35.90155,-3.031440,1120.00
35.93513,-3.030672,1122.00
35.96900,-3.030646,1124.00
36.00117,-3.030783,1126.00
36.03443,-3.030888,1128.00
36.06683,-3.031452,1130.00
36.10179,-3.031783,1132.00
36.13265,-3.031693,1134.00
36.16611,-3.031859,1136.00
36.19987,-3.031965,1138.00
36.23367,-3.031932,1140.00
36.26662,-3.032700,1142.00
36.29764,-3.033474,1144.00
36.33012,-3.033586,1146.00
36.36363,-3.033769,1148.00
36.39814,-3.033909,1150.00
36.43233,-3.033940,1152.00
36.46675,-3.033905,1154.00
36.50032,-3.034301,1156.00
36.53244,-3.034602,1158.00
36.56410,-3.034533,1160.00
36.59631,-3.034589,1162.00
36.63173,-3.034703,1164.00
36.66548,-3.034763,1166.00
36.69743,-3.034625,1168.00
36.73094,-3.034495,1170.00
36.76461,-3.034825,1172.00
36.79882,-3.034446,1174.00
36.83237,-3.034175,1176.00
36.86369,-3.033945,1178.00
36.89656,-3.033808,1180.00
36.93027,-3.034083,1182.00
36.96349,-3.033765,1184.00
36.99715,-3.033211,1186.00
37.02903,-3.033330,1188.00
37.06165,-3.033680,1190.00
37.09545,-3.033309,1192.00
37.12881,-3.033389,1194.00
37.16308,-3.033953,1196.00
37.19516,-3.033759,1198.00
37.22788,-3.033684,1200.00
37.26015,-3.033447,1202.00
37.29410,-3.032871,1204.00
37.32515,-3.032600,1206.00
37.35919,-3.033206,1208.00
37.39091,-3.033534,1210.00
37.42508,-3.033619,1212.00
37.45847,-3.033595,1214.00
37.49083,-3.033600,1216.00
37.52343,-3.033182,1218.00
37.55924,-3.033335,1220.00
37.59260,-3.033504,1222.00
37.62492,-3.033155,1224.00
37.65816,-3.033151,1226.00
37.69077,-3.032928,1228.00
37.72609,-3.032522,1230.00
37.75696,-3.032114,1232.00
37.78610,-3.032633,1234.00
37.82285,-3.032430,1236.00
37.85338,-3.031940,1238.00
37.88716,-3.031791,1240.00
37.91955,-3.031658,1242.00
37.95308,-3.031405,1244.00
37.98644,-3.031254,1246.00
38.02302,-3.030858,1248.00
38.05370,-3.031027,1250.00
38.08691,-3.031095,1252.00
38.11910,-3.030997,1254.00
38.15189,-3.031535,1256.00
38.18430,-3.031398,1258.00
38.21651,-3.031343,1260.00
38.24812,-3.031230,1262.00
38.28299,-3.031423,1264.00
38.31815,-3.031559,1266.00
38.35006,-3.031720,1268.00
38.38516,-3.031954,1270.00
38.41871,-3.032077,1272.00
38.45048,-3.031517,1274.00
38.48290,-3.030892,1276.00
38.51658,-3.031206,1278.00
38.54900,-3.031790,1280.00
38.58421,-3.031606,1282.00
38.61607,-3.031553,1284.00
38.64882,-3.031624,1286.00
38.68213,-3.031861,1288.00
38.71243,-3.031627,1290.00
38.74481,-3.031240,1292.00
38.77922,-3.031372,1294.00
38.81096,-3.031901,1296.00
38.84265,-3.032174,1298.00
38.87705,-3.032393,1300.00
38.90873,-3.032482,1302.00
38.94284,-3.032744,1304.00
38.97717,-3.032500,1306.00
39.01035,-3.032797,1308.00
39.04561,-3.033141,1310.00
39.07747,-3.032804,1312.00
39.10837,-3.032883,1314.00
39.14286,-3.033043,1316.00
39.17452,-3.032882,1318.00
39.20692,-3.033227,1320.00
39.24067,-3.032737,1322.00
39.27677,-3.032825,1324.00
39.31037,-3.032428,1326.00
39.34345,-3.032271,1328.00
39.37596,-3.032862,1330.00
39.40810,-3.032890,1332.00
39.44053,-3.032400,1334.00
39.47328,-3.032334,1336.00
39.50739,-3.032206,1338.00
39.54206,-3.031857,1340.00
39.57366,-3.032103,1342.00
39.60672,-3.032674,1344.00
