Wavelength	Intensity
nm	arb. units
	900° C
550	127.514
550.25	125.384
550.5	123.254
550.75	121.124
551	118.994
551.25	119.2715
551.5	119.549
551.75	119.8265
552	120.104
552.25	122.279
552.5	124.454
552.75	126.629
553	128.804
553.25	126.629
553.5	124.454
553.75	122.279
554	120.104
554.25	120.104
554.5	120.104
554.75	120.104
555	120.104
555.25	121.5865
555.5	123.069
555.75	124.5515
556	126.034
556.25	125.0165
556.5	123.999
556.75	122.9815
557	121.964
557.25	121.4065
557.5	120.849
557.75	120.2915
558	119.734
558.25	122.049
558.5	124.364
558.75	126.679
559	128.994
559.25	128.809
559.5	128.624
559.75	128.439
560	128.254
560.25	127.2365
560.5	126.219
560.75	125.2015
561	124.184
561.25	125.2015
561.5	126.219
561.75	127.2365
562	128.254
562.25	128.3465
562.5	128.439
562.75	128.5315
563	128.624
563.25	127.929
563.5	127.234
563.75	126.539
564	125.844
564.25	127.5115
564.5	129.179
564.75	130.8465
565	132.514
565.25	131.494
565.5	130.474
565.75	129.454
566	128.434
566.25	127.324
566.5	126.214
566.75	125.104
567	123.994
567.25	125.5215
567.5	127.049
567.75	128.5765
568	130.104
568.25	128.7615
568.5	127.419
568.75	126.0765
569	124.734
569.25	124.689
569.5	124.644
569.75	124.599
570	124.554
570.25	125.479
570.5	126.404
570.75	127.329
571	128.254
571.25	128.3915
571.5	128.529
571.75	128.6665
572	128.804
572.25	128.2965
572.5	127.789
572.75	127.2815
573	126.774
573.25	127.44525
573.5	128.1165
573.75	128.78775
574	129.459
574.25	130.13025
574.5	130.8015
574.75	131.47275
575	132.144
575.25	130.9865
575.5	129.829
575.75	128.6715
576	127.514
576.25	127.514
576.5	127.514
576.75	127.514
577	127.514
577.25	128.7165
577.5	129.919
577.75	131.1215
578	132.324
578.25	131.8165
578.5	131.309
578.75	130.8015
579	130.294
579.25	130.2465
579.5	130.199
579.75	130.1515
580	130.104
580.25	132.789
580.5	135.474
580.75	138.159
581	140.844
581.25	140.9365
581.5	141.029
581.75	141.1215
582	141.214
582.25	140.9815
582.5	140.749
582.75	140.5165
583	140.284
583.25	141.9965
583.5	143.709
583.75	145.4215
584	147.134
584.25	147.504
584.5	147.874
584.75	148.244
585	148.614
585.25	149.0765
585.5	149.539
585.75	150.0015
586	150.464
586.25	152.779
586.5	155.094
586.75	157.409
587	159.724
587.25	159.354
587.5	158.984
587.75	158.614
588	158.244
588.25	158.6615
588.5	159.079
588.75	159.4965
589	159.914
589.25	161.1615
589.5	162.409
589.75	163.6565
590	164.904
590.25	165.3215
590.5	165.739
590.75	166.1565
591	166.574
591.25	166.4815
591.5	166.389
591.75	166.2965
592	166.204
592.25	168.9815
592.5	171.759
592.75	174.5365
593	177.314
593.25	176.759
593.5	176.204
593.75	175.649
594	175.094
594.25	175.464
594.5	175.834
594.75	176.204
595	176.574
595.25	177.7315
595.5	178.889
595.75	180.0465
596	181.204
596.25	182.359
596.5	183.514
596.75	184.669
597	185.824
597.25	185.7315
597.5	185.639
597.75	185.5465
598	185.454
598.25	187.444
598.5	189.434
598.75	191.424
599	193.414
599.25	193.1365
599.5	192.859
599.75	192.5815
600	192.304
600.25	192.7215
600.5	193.139
600.75	193.5565
601	193.974
601.25	194.73775
601.5	195.5015
601.75	196.26525
602	197.029
602.25	197.79275
602.5	198.5565
602.75	199.32025
603	200.084
603.25	200.824
603.5	201.564
603.75	202.304
604	203.044
604.25	202.999
604.5	202.954
604.75	202.909
605	202.864
605.25	204.8065
605.5	206.749
605.75	208.6915
606	210.634
606.25	209.2915
606.5	207.949
606.75	206.6065
607	205.264
607.25	207.254
607.5	209.244
607.75	211.234
608	213.224
608.25	214.844
608.5	216.464
608.75	218.084
609	219.704
609.25	219.9365
609.5	220.169
609.75	220.4015
610	220.634
610.25	222.069
610.5	223.504
610.75	224.939
611	226.374
611.25	227.7165
611.5	229.059
611.75	230.4015
612	231.744
612.25	230.4465
612.5	229.149
612.75	227.8515
613	226.554
613.25	226.4615
613.5	226.369
613.75	226.2765
614	226.184
614.25	229.194
614.5	232.204
614.75	235.214
615	238.224
615.25	236.789
615.5	235.354
615.75	233.919
616	232.484
616.25	232.854
616.5	233.224
616.75	233.594
617	233.964
617.25	235.5365
617.5	237.109
617.75	238.6815
618	240.254
618.25	237.9865
618.5	235.719
618.75	233.4515
619	231.184
619.25	231.879
619.5	232.574
619.75	233.269
620	233.964
620.25	236.0465
620.5	238.129
620.75	240.2115
621	242.294
621.25	241.6465
621.5	240.999
621.75	240.3515
622	239.704
622.25	239.239
622.5	238.774
622.75	238.309
623	237.844
623.25	238.679
623.5	239.514
623.75	240.349
624	241.184
624.25	239.5165
624.5	237.849
624.75	236.1815
625	234.514
625.25	234.514
625.5	234.514
625.75	234.514
626	234.514
626.25	234.699
626.5	234.884
626.75	235.069
627	235.254
627.25	234.884
627.5	234.514
627.75	234.144
628	233.774
628.25	232.709
628.5	231.644
628.75	230.579
629	229.514
629.25	230.0715
629.5	230.629
629.75	231.1865
630	231.744
630.25	230.124
630.5	228.504
630.75	226.884
631	225.264
631.25	224.824
631.5	224.384
631.75	223.944
632	223.504
632.25	223.064
632.5	222.624
632.75	222.184
633	221.744
633.25	221.559
633.5	221.374
633.75	221.189
634	221.004
634.25	220.3565
634.5	219.709
634.75	219.0615
635	218.414
635.25	217.394
635.5	216.374
635.75	215.354
636	214.334
636.25	214.334
636.5	214.334
636.75	214.334
637	214.334
637.25	211.6965
637.5	209.059
637.75	206.4215
638	203.784
638.25	203.414
638.5	203.044
638.75	202.674
639	202.304
639.25	203.2765
639.5	204.249
639.75	205.2215
640	206.194
640.25	202.584
640.5	198.974
640.75	195.364
641	191.754
641.25	192.5865
641.5	193.419
641.75	194.2515
642	195.084
642.25	195.269
642.5	195.454
642.75	195.639
643	195.824
643.25	194.2965
643.5	192.769
643.75	191.2415
644	189.714
644.25	189.6215
644.5	189.529
644.75	189.4365
645	189.344
645.25	189.8065
645.5	190.269
645.75	190.7315
646	191.194
646.25	189.529
646.5	187.864
646.75	186.199
647	184.534
647.25	185.9215
647.5	187.309
647.75	188.6965
648	190.084
648.25	190.454
648.5	190.824
648.75	191.194
649	191.564
649.25	191.7965
649.5	192.029
649.75	192.2615
650	192.494
650.25	193.0965
650.5	193.699
650.75	194.3015
651	194.904
651.25	196.3365
651.5	197.769
651.75	199.2015
652	200.634
652.25	201.144
652.5	201.654
652.75	202.164
653	202.674
653.25	203.739
653.5	204.804
653.75	205.869
654	206.934
654.25	208.184
654.5	209.434
654.75	210.684
655	211.934
655.25	213.414
655.5	214.894
655.75	216.374
656	217.854
656.25	218.8715
656.5	219.889
656.75	220.9065
657	221.924
657.25	223.6365
657.5	225.349
657.75	227.0615
658	228.774
658.25	229.3765
658.5	229.979
658.75	230.5815
659	231.184
659.25	233.684
659.5	236.184
659.75	238.684
660	241.184
660.25	241.924
660.5	242.664
660.75	243.404
661	244.144
661.25	245.994
661.5	247.844
661.75	249.694
662	251.544
662.25	252.3315
662.5	253.119
662.75	253.9065
663	254.694
663.25	255.4815
663.5	256.269
663.75	257.0565
664	257.844
664.25	258.8165
664.5	259.789
664.75	260.7615
665	261.734
665.25	262.474
665.5	263.214
665.75	263.954
666	264.694
666.25	265.2015
666.5	265.709
666.75	266.2165
667	266.724
667.25	268.7165
667.5	270.709
667.75	272.7015
668	274.694
668.25	275.5265
668.5	276.359
668.75	277.1915
669	278.024
669.25	279.5965
669.5	281.169
669.75	282.7415
670	284.314
670.25	284.9615
670.5	285.609
670.75	286.2565
671	286.904
671.25	287.969
671.5	289.034
671.75	290.099
672	291.164
672.25	290.3765
672.5	289.589
672.75	288.8015
673	288.014
673.25	289.9115
673.5	291.809
673.75	293.7065
674	295.604
674.25	294.9115
674.5	294.219
674.75	293.5265
675	292.834
675.25	293.9915
675.5	295.149
675.75	296.3065
676	297.464
676.25	296.1665
676.5	294.869
676.75	293.5715
677	292.274
677.25	292.9215
677.5	293.569
677.75	294.2165
678	294.864
678.25	295.8365
678.5	296.809
678.75	297.7815
679	298.754
679.25	298.709
679.5	298.664
679.75	298.619
680	298.574
680.25	296.769
680.5	294.964
680.75	293.159
681	291.354
681.25	292.649
681.5	293.944
681.75	295.239
682	296.534
682.25	295.7015
682.5	294.869
682.75	294.0365
683	293.204
683.25	293.2965
683.5	293.389
683.75	293.4815
684	293.574
684.25	293.4815
684.5	293.389
684.75	293.2965
685	293.204
685.25	293.389
685.5	293.574
685.75	293.759
686	293.944
686.25	293.574
686.5	293.204
686.75	292.834
687	292.464
687.25	292.4165
687.5	292.369
687.75	292.3215
688	292.274
688.25	292.5065
688.5	292.739
688.75	292.9715
689	293.204
689.25	293.1115
689.5	293.019
689.75	292.9265
690	292.834
690.25	292.694
690.5	292.554
690.75	292.414
691	292.274
691.25	294.1265
691.5	295.979
691.75	297.8315
692	299.684
692.25	299.729
692.5	299.774
692.75	299.819
693	299.864
693.25	301.114
693.5	302.364
693.75	303.614
694	304.864
694.25	304.7265
694.5	304.589
694.75	304.4515
695	304.314
695.25	304.869
695.5	305.424
695.75	305.979
696	306.534
696.25	307.089
696.5	307.644
696.75	308.199
697	308.754
697.25	307.7815
697.5	306.809
697.75	305.8365
698	304.864
698.25	306.3465
698.5	307.829
698.75	309.3115
699	310.794
699.25	310.2365
699.5	309.679
699.75	309.1215
700	308.564
700.25	309.399
700.5	310.234
700.75	311.069
701	311.904
701.25	311.9965
701.5	312.089
701.75	312.1815
702	312.274
702.25	312.319
702.5	312.364
702.75	312.409
703	312.454
703.25	312.824
703.5	313.194
703.75	313.564
704	313.934
704.25	313.2415
704.5	312.549
704.75	311.8565
705	311.164
705.25	309.8215
705.5	308.479
705.75	307.1365
706	305.794
706.25	306.4415
706.5	307.089
706.75	307.7365
707	308.384
707.25	307.829
707.5	307.274
707.75	306.719
708	306.164
708.25	304.404
708.5	302.644
708.75	300.884
709	299.124
709.25	299.819
709.5	300.514
709.75	301.209
710	301.904
710.25	302.089
710.5	302.274
710.75	302.459
711	302.644
711.25	300.514
711.5	298.384
711.75	296.254
712	294.124
712.25	292.689
712.5	291.254
712.75	289.819
713	288.384
713.25	287.969
713.5	287.554
713.75	287.139
714	286.724
714.25	284.734
714.5	282.744
714.75	280.754
715	278.764
715.25	277.329
715.5	275.894
715.75	274.459
716	273.024
716.25	273.069
716.5	273.114
716.75	273.159
717	273.204
717.25	270.474
717.5	267.744
717.75	265.014
718	262.284
718.25	263.164
718.5	264.044
718.75	264.924
719	265.804
719.25	263.119
719.5	260.434
719.75	257.749
720	255.064
720.25	255.019
720.5	254.974
720.75	254.929
721	254.884
721.25	253.2165
721.5	251.549
721.75	249.8815
722	248.214
722.25	249.0465
722.5	249.879
722.75	250.7115
723	251.544
723.25	249.6015
723.5	247.659
723.75	245.7165
724	243.774
724.25	244.1915
724.5	244.609
724.75	245.0265
725	245.444
725.25	245.674
725.5	245.904
725.75	246.134
726	246.364
726.25	245.994
726.5	245.624
726.75	245.254
727	244.884
727.25	246.179
727.5	247.474
727.75	248.769
728	250.064
728.25	250.9915
728.5	251.919
728.75	252.8465
729	253.774
729.25	254.0515
729.5	254.329
729.75	254.6065
730	254.884
730.25	256.11025
730.5	257.3365
730.75	258.56275
731	259.789
731.25	261.01525
731.5	262.2415
731.75	263.46775
732	264.694
732.25	267.1465
732.5	269.599
732.75	272.0515
733	274.504
733.25	275.2915
733.5	276.079
733.75	276.8665
734	277.654
734.25	281.7265
734.5	285.799
734.75	289.8715
735	293.944
735.25	295.794
735.5	297.644
735.75	299.494
736	301.344
736.25	303.7515
736.5	306.159
736.75	308.5665
737	310.974
737.25	315.324
737.5	319.674
737.75	324.024
738	328.374
738.25	331.614
738.5	334.854
738.75	338.094
739	341.334
739.25	345.9615
739.5	350.589
739.75	355.2165
740	359.844
740.25	362.9915
740.5	366.139
740.75	369.2865
741	372.434
741.25	376.044
741.5	379.654
741.75	383.264
742	386.874
742.25	390.9465
742.5	395.019
742.75	399.0915
743	403.164
743.25	409.459
743.5	415.754
743.75	422.049
744	428.344
744.25	431.3515
744.5	434.359
744.75	437.3665
745	440.374
745.25	443.8915
745.5	447.409
745.75	450.9265
746	454.444
746.25	459.489
746.5	464.534
746.75	469.579
747	474.624
747.25	479.9015
747.5	485.179
747.75	490.4565
748	495.734
748.25	500.0365
748.5	504.339
748.75	508.6415
749	512.944
749.25	519.009
749.5	525.074
749.75	531.139
750	537.204
750.25	539.194
750.5	541.184
750.75	543.174
751	545.164
751.25	550.4865
751.5	555.809
751.75	561.1315
752	566.454
752.25	571.1265
752.5	575.799
752.75	580.4715
753	585.144
753.25	587.6915
753.5	590.239
753.75	592.7865
754	595.334
754.25	599.0815
754.5	602.829
754.75	606.5765
755	610.324
755.25	616.249
755.5	622.174
755.75	628.099
756	634.024
756.25	635.134
756.5	636.244
756.75	637.354
757	638.464
757.25	641.844
757.5	645.224
757.75	648.604
758	651.984
758.25	654.344
758.5	656.704
758.75	659.064
759	661.424
759.25	663.7365
759.5	666.049
759.75	668.3615
760	670.674
760.25	671.8315
760.5	672.989
760.75	674.1465
761	675.304
761.25	676.924
761.5	678.544
761.75	680.164
762	681.784
762.25	681.6465
762.5	681.509
762.75	681.3715
763	681.234
763.25	683.039
763.5	684.844
763.75	686.649
764	688.454
764.25	688.5465
764.5	688.639
764.75	688.7315
765	688.824
765.25	688.129
765.5	687.434
765.75	686.739
766	686.044
766.25	683.869
766.5	681.694
766.75	679.519
767	677.344
767.25	677.944
767.5	678.544
767.75	679.144
768	679.744
768.25	676.3215
768.5	672.899
768.75	669.4765
769	666.054
769.25	666.3315
769.5	666.609
769.75	666.8865
770	667.164
770.25	666.21525
770.5	665.2665
770.75	664.31775
771	663.369
771.25	662.42025
771.5	661.4715
771.75	660.52275
772	659.574
772.25	656.4265
772.5	653.279
772.75	650.1315
773	646.984
773.25	645.1315
773.5	643.279
773.75	641.4265
774	639.574
774.25	635.779
774.5	631.984
774.75	628.189
775	624.394
775.25	622.8665
775.5	621.339
775.75	619.8115
776	618.284
776.25	615.554
776.5	612.824
776.75	610.094
777	607.364
777.25	604.309
777.5	601.254
777.75	598.199
778	595.144
778.25	591.7665
778.5	588.389
778.75	585.0115
779	581.634
779.25	578.624
779.5	575.614
779.75	572.604
780	569.594
780.25	568.809
780.5	568.024
780.75	567.239
781	566.454
781.25	562.5665
781.5	558.679
781.75	554.7915
782	550.904
782.25	547.6165
782.5	544.329
782.75	541.0415
783	537.754
783.25	536.504
783.5	535.254
783.75	534.004
784	532.754
784.25	529.8865
784.5	527.019
784.75	524.1515
785	521.284
785.25	518.8765
785.5	516.469
785.75	514.0615
786	511.654
786.25	511.0065
786.5	510.359
786.75	509.7115
787	509.064
787.25	504.8515
787.5	500.639
787.75	496.4265
788	492.214
788.25	492.1215
788.5	492.029
788.75	491.9365
789	491.844
789.25	490.779
789.5	489.714
789.75	488.649
790	487.584
790.25	484.8065
790.5	482.029
790.75	479.2515
791	476.474
791.25	476.1515
791.5	475.829
791.75	475.5065
792	475.184
792.25	477.0815
792.5	478.979
792.75	480.8765
793	482.774
793.25	480.7365
793.5	478.699
793.75	476.6615
794	474.624
794.25	477.7265
794.5	480.829
794.75	483.9315
795	487.034
795.25	486.2915
795.5	485.549
795.75	484.8065
796	484.064
796.25	486.4265
796.5	488.789
796.75	491.1515
797	493.514
797.25	495.919
797.5	498.324
797.75	500.729
798	503.134
798.25	508.179
798.5	513.224
798.75	518.269
799	523.314
799.25	525.0265
799.5	526.739
799.75	528.4515
800	530.164
800.25	534.7465
800.5	539.329
800.75	543.9115
801	548.494
801.25	554.0465
801.5	559.599
801.75	565.1515
802	570.704
802.25	575.9815
802.5	581.259
802.75	586.5365
803	591.814
803.25	596.904
803.5	601.994
803.75	607.084
804	612.174
804.25	620.5065
804.5	628.839
804.75	637.1715
805	645.504
805.25	650.3165
805.5	655.129
805.75	659.9415
806	664.754
806.25	673.824
806.5	682.894
806.75	691.964
807	701.034
807.25	709.874
807.5	718.714
807.75	727.554
808	736.394
808.25	743.5215
808.5	750.649
808.75	757.7765
809	764.904
809.25	771.199
809.5	777.494
809.75	783.789
810	790.084
810.25	800.2665
810.5	810.449
810.75	820.6315
811	830.814
811.25	837.5715
811.5	844.329
811.75	851.0865
812	857.844
812.25	865.619
812.5	873.394
812.75	881.169
813	888.944
813.25	896.859
813.5	904.774
813.75	912.689
814	920.604
814.25	926.434
814.5	932.264
814.75	938.094
815	943.924
815.25	946.47025
815.5	949.0165
815.75	951.56275
816	954.109
816.25	956.65525
816.5	959.2015
816.75	961.74775
817	964.294
817.25	972.994
817.5	981.694
817.75	990.394
818	999.094
818.25	999.974
818.5	1000.854
818.75	1001.734
819	1002.614
819.25	1010.2965
819.5	1017.979
819.75	1025.6615
820	1033.344
820.25	1036.4915
820.5	1039.639
820.75	1042.7865
821	1045.934
821.25	1050.5615
821.5	1055.189
821.75	1059.8165
822	1064.444
822.25	1065.879
822.5	1067.314
822.75	1068.749
823	1070.184
823.25	1076.8015
823.5	1083.419
823.75	1090.0365
824	1096.654
824.25	1097.859
824.5	1099.064
824.75	1100.269
825	1101.474
825.25	1107.304
825.5	1113.134
825.75	1118.964
826	1124.794
826.25	1126.784
826.5	1128.774
826.75	1130.764
827	1132.754
827.25	1135.949
827.5	1139.144
827.75	1142.339
828	1145.534
828.25	1146.7365
828.5	1147.939
828.75	1149.1415
829	1150.344
829.25	1156.2215
829.5	1162.099
829.75	1167.9765
830	1173.854
830.25	1172.234
830.5	1170.614
830.75	1168.994
831	1167.374
831.25	1173.484
831.5	1179.594
831.75	1185.704
832	1191.814
832.25	1194.174
832.5	1196.534
832.75	1198.894
833	1201.254
833.25	1204.9565
833.5	1208.659
833.75	1212.3615
834	1216.064
834.25	1218.099
834.5	1220.134
834.75	1222.169
835	1224.204
835.25	1229.759
835.5	1235.314
835.75	1240.869
836	1246.424
836.25	1246.564
836.5	1246.704
836.75	1246.844
837	1246.984
837.25	1250.7315
837.5	1254.479
837.75	1258.2265
838	1261.974
838.25	1264.474
838.5	1266.974
838.75	1269.474
839	1271.974
839.25	1274.379
839.5	1276.784
839.75	1279.189
840	1281.594
840.25	1281.874
840.5	1282.154
840.75	1282.434
841	1282.714
841.25	1287.294
841.5	1291.874
841.75	1296.454
842	1301.034
842.25	1298.119
842.5	1295.204
842.75	1292.289
843	1289.374
843.25	1291.1315
843.5	1292.889
843.75	1294.6465
844	1296.404
844.25	1293.814
844.5	1291.224
844.75	1288.634
845	1286.044
845.25	1287.2465
845.5	1288.449
845.75	1289.6515
846	1290.854
846.25	1285.0215
846.5	1279.189
846.75	1273.3565
847	1267.524
847.25	1269.284
847.5	1271.044
847.75	1272.804
848	1274.564
848.25	1270.629
848.5	1266.694
848.75	1262.759
849	1258.824
849.25	1256.9265
849.5	1255.029
849.75	1253.1315
850	1251.234
850.25	1247.809
850.5	1244.384
850.75	1240.959
851	1237.534
851.25	1233.879
851.5	1230.224
851.75	1226.569
852	1222.914
852.25	1216.249
852.5	1209.584
852.75	1202.919
853	1196.254
853.25	1193.6615
853.5	1191.069
853.75	1188.4765
854	1185.884
854.25	1177.694
854.5	1169.504
854.75	1161.314
855	1153.124
855.25	1150.254
855.5	1147.384
855.75	1144.514
856	1141.644
856.25	1133.359
856.5	1125.074
856.75	1116.789
857	1108.504
857.25	1102.024
857.5	1095.544
857.75	1089.064
858	1082.584
858.25	1074.439
858.5	1066.294
858.75	1058.149
859	1050.004
859.25	1043.894
859.5	1037.784
859.75	1031.674
860	1025.564
860.25	1015.0115
860.5	1004.459
860.75	993.9065
861	983.354
861.25	975.579
861.5	967.804
861.75	960.029
862	952.254
862.25	944.7565
862.5	937.259
862.75	929.7615
863	922.264
863.25	914.349
863.5	906.434
863.75	898.519
864	890.604
864.25	883.154
864.5	875.704
864.75	868.254
865	860.804
865.25	857.379
865.5	853.954
865.75	850.529
866	847.104
866.25	839.189
866.5	831.274
866.75	823.359
867	815.444
867.25	812.0665
867.5	808.689
867.75	805.3115
868	801.934
868.25	799.619
868.5	797.304
868.75	794.989
869	792.674
869.25	791.2865
869.5	789.899
869.75	788.5115
870	787.124
870.25	786.5915
870.5	786.059
870.75	785.5265
871	784.994
871.25	784.4615
871.5	783.929
871.75	783.3965
872	782.864
872.25	785.6865
872.5	788.509
872.75	791.3315
873	794.154
873.25	794.339
